timestamps,TP9,AF7
1533222560,59.105,28.32
1533222560,62.012,30.273
1533222560,44.922,30.273
1533222560,28.809,27.832
1533222560,36.156,28.809
1533222560,57.617,36.133
1533222560,74.219,38.574
1533222560,57.129,33.691
1533222560,23.949,29.785
1533222560,20.02,33.203
1533222560,41.504,33.203
1533222560,51.758,29.785
1533222560,47.852,34.18
1533222560,34.18,36.133
1533222560,33.691,34.668
1533222560,52.246,36.133
1533222560,62.012,40.039
1533222560,51.781,36.133
1533222560,38.574,34.668
1533222560,45.41,44.434
1533222560,59.57,41.992
1533222560,68.359,37.598
1533222560,63.965,48.34
1533222560,52.734,52.246
1533222560,58.594,53.223
1533222560,69.336,53.711
1533222560,74.219,49.316
1533222560,73.73,47.363
1533222560,62.012,42.969
1533222560,54.199,39.062
1533222560,69.336,39.551
1533222560,91.309,41.016
1533222560,95.332,39.551
1533222560,71.777,39.062
1533222560,72.754,37.109
1533222560,87.891,38.086
1533222560,103.027,41.504
1533222560,102.539,34.668
1533222560,80.078,38.086
1533222560,77.637,50.781
1533222560,94.145,61.523
1533222560,107.91,66.406
1533222560,107.91,60.547
1533222560,96.68,62.012
1533222560,86.426,69.336
1533222560,82.379,64.453
1533222560,105.957,62.012
1533222560,113.77,69.336
1533222560,98.145,70.801
1533222560,83.008,64.941
1533222560,89.844,62.012
1533222560,107.422,62.5
1533222560,110.352,54.688
1533222560,88.379,46.387
1533222560,63.477,41.504
1533222560,64.941,37.598
1533222560,85.449,33.203
1533222560,88.379,29.785
1533222560,72.754,28.809
1533222560,64.941,28.32
1533222560,60.547,21.973
1533222560,62.5,20.02
1533222560,72.754,22.461
1533222560,58.105,19.043
1533222560,40.527,16.113
1533222560,47.363,18.066
1533222560,57.617,17.09
1533222560,69.824,16.602
1533222560,70.312,18.066
1533222560,53.223,20.996
1533222560,45.41,17.578
1533222560,57.617,17.09
1533222560,71.289,23.438
1533222560,67.871,22.461
1533222560,44.434,24.414
1533222560,34.668,31.25
1533222560,54.688,31.25
1533222560,67.871,27.344
1533222560,62.012,21.484
1533222560,45.41,25.391
1533222560,35.645,34.668
1533222560,40.039,32.715
1533222560,55.664,31.25
1533222560,60.547,35.156
1533222560,46.387,33.691
1533222560,31.25,29.297
1533222560,36.133,30.273
1533222560,58.594,32.227
1533222560,63.965,24.902
1533222560,57.129,20.508
1533222560,44.922,33.203
1533222560,44.434,40.039
1533222560,66.895,39.062
1533222560,79.102,39.551
1533222560,67.871,39.551
1533222560,59.082,42.48
1533222560,69.824,41.504
1533222560,91.309,41.992
1533222560,92.773,43.457
1533222560,74.219,38.574
1533222560,71.289,35.156
1533222560,80.566,33.691
1533222560,93.262,28.809
1533222560,95.703,28.809
1533222560,89.844,30.762
1533222560,75.684,29.785
1533222560,74.707,35.645
1533222560,89.355,33.691
1533222560,91.309,26.855
1533222560,90.332,26.367
1533222560,79.102,28.809
1533222560,67.871,27.344
1533222560,76.172,27.344
1533222560,92.285,27.344
1533222560,91.309,24.414
1533222560,70.312,21.484
1533222560,66.895,22.949
1533222560,72.266,24.902
1533222560,77.637,23.926
1533222560,74.219,24.414
1533222560,58.594,26.855
1533222560,48.828,24.902
1533222560,56.152,24.902
1533222560,84.473,25.879
1533222560,84.473,23.926
1533222560,61.523,21.484
1533222560,57.129,21.973
1533222560,63.965,25.391
1533222560,81.543,22.949
1533222560,89.355,21.484
1533222560,75.684,27.344
1533222560,64.941,26.367
1533222560,69.824,24.414
1533222560,86.914,28.32
1533222560,88.867,26.367
1533222560,67.383,31.25
1533222560,50.781,28.809
1533222560,54.199,17.09
1533222560,71.289,19.531
1533222560,73.242,18.066
1533222560,55.176,15.137
1533222560,47.852,19.531
1533222560,54.199,22.461
1533222560,73.242,22.461
1533222560,83.496,18.555
1533222560,71.777,13.184
1533222560,47.852,25.391
1533222560,36.621,35.156
1533222560,62.5,31.738
1533222560,92.773,39.062
1533222560,84.961,39.062
1533222560,63.965,33.691
1533222560,66.406,39.551
1533222560,80.078,38.574
1533222560,97.168,32.227
1533222560,100.586,32.715
1533222560,79.102,32.715
1533222560,71.289,33.691
1533222560,83.008,36.133
1533222560,93.262,35.156
1533222560,90.332,28.32
1533222560,72.754,29.297
1533222560,65.43,36.621
1533222560,85.449,31.25
1533222560,106.934,27.832
1533222560,107.422,30.762
1533222560,91.309,31.25
1533222560,79.102,30.762
1533222560,88.867,34.668
1533222560,98.633,28.809
1533222561,96.68,27.832
1533222561,85.938,36.621
1533222561,65.918,34.18
1533222561,76.172,36.621
1533222561,98.145,39.551
1533222561,105.957,41.504
1533222561,102.539,43.457
1533222561,87.402,41.992
1533222561,86.426,45.898
1533222561,102.539,47.852
1533222561,104.492,45.898
1533222561,97.656,48.34
1533222561,84.961,47.852
1533222561,76.66,41.016
1533222561,90.82,33.203
1533222561,100.098,28.809
1533222561,95.215,30.273
1533222561,90.332,37.598
1533222561,79.102,37.598
1533222561,80.566,34.18
1533222561,94.238,36.133
1533222561,85.449,38.086
1533222561,74.707,42.48
1533222561,76.66,44.922
1533222561,95.703,47.363
1533222561,106.445,47.852
1533222561,101.074,48.828
1533222561,89.844,48.828
1533222561,79.102,46.387
1533222561,87.891,48.34
1533222561,100.586,45.898
1533222561,95.703,45.41
1533222561,82.52,48.828
1533222561,73.242,47.852
1533222561,80.078,49.316
1533222561,87.402,48.828
1533222561,80.078,48.828
1533222561,65.43,54.199
1533222561,54.688,48.828
1533222561,63.965,46.875
1533222561,79.59,51.27
1533222561,79.59,49.316
1533222561,66.895,51.27
1533222561,53.223,50.293
1533222561,56.641,45.41
1533222561,72.266,46.387
1533222561,77.148,49.316
1533222561,59.57,43.457
1533222561,47.852,41.016
1533222561,51.27,41.016
1533222561,64.941,37.598
1533222561,73.242,38.574
1533222561,65.43,38.086
1533222561,57.617,38.574
1533222561,62.5,41.504
1533222561,77.637,37.109
1533222561,90.332,32.715
1533222561,80.078,36.133
1533222561,54.688,41.504
1533222561,43.945,36.621
1533222561,71.777,35.645
1533222561,100.098,41.992
1533222561,96.191,42.969
1533222561,81.543,44.922
1533222561,76.66,43.945
1533222561,95.703,46.875
1533222561,108.398,47.363
1533222561,96.191,43.945
1533222561,76.172,42.969
1533222561,66.406,41.016
1533222561,76.66,39.062
1533222561,86.426,35.645
1533222561,74.219,32.227
1533222561,57.129,33.203
1533222561,79.59,55.176
1533222561,94.727,60.059
1533222561,83.984,47.363
1533222561,76.172,43.457
1533222561,67.383,40.039
1533222561,53.223,36.133
1533222561,56.152,34.668
1533222561,67.383,34.668
1533222561,65.918,31.738
1533222561,45.898,25.879
1533222561,33.691,31.25
1533222561,41.992,38.086
1533222561,54.199,37.109
1533222561,55.176,36.133
1533222561,45.41,37.598
1533222561,40.039,39.062
1533222561,45.41,36.621
1533222561,63.477,36.133
1533222561,72.754,38.574
1533222561,61.035,42.48
1533222561,43.457,40.527
1533222561,36.133,41.016
1533222561,44.922,33.203
1533222561,59.082,20.996
1533222561,50.293,28.809
1533222561,32.227,33.203
1533222561,43.945,36.621
1533222561,73.73,38.086
1533222561,86.426,39.551
1533222561,67.871,41.504
1533222561,48.34,43.457
1533222561,39.551,39.551
1533222561,42.48,32.715
1533222561,52.734,34.18
1533222561,45.41,35.156
1533222561,24.902,32.227
1533222561,24.902,34.668
1533222561,41.504,36.621
1533222561,60.059,37.109
1533222561,62.988,39.551
1533222561,42.48,39.551
1533222561,32.227,43.945
1533222561,49.805,46.875
1533222561,68.359,41.504
1533222561,70.801,40.527
1533222561,47.852,39.551
1533222561,35.156,41.016
1533222561,50.781,46.387
1533222561,63.477,42.969
1533222561,61.035,37.598
1533222561,45.898,41.992
1533222561,36.133,39.062
1533222561,38.574,36.133
1533222561,48.828,36.621
1533222561,62.988,36.133
1533222561,51.758,36.621
1533222561,36.621,35.645
1533222561,51.27,38.574
1533222561,65.918,41.016
1533222561,63.965,40.527
1533222561,54.688,39.062
1533222561,43.457,36.621
1533222561,50.293,38.574
1533222561,67.383,38.086
1533222561,75.684,37.598
1533222561,71.289,35.645
1533222561,62.012,34.668
1533222561,59.082,38.086
1533222561,65.918,35.645
1533222561,76.66,37.109
1533222561,68.848,44.922
1533222561,58.594,49.316
1533222561,55.176,46.387
1533222561,59.082,44.434
1533222561,63.965,48.828
1533222561,58.105,52.246
1533222561,45.41,46.875
1533222561,39.551,42.48
1533222561,57.129,44.434
1533222561,69.336,41.992
1533222561,60.547,41.016
1533222561,44.434,41.504
1533222561,38.086,45.41
1533222561,46.387,44.434
1533222561,57.129,41.016
1533222561,59.082,44.922
1533222561,50.781,48.34
1533222561,45.41,48.828
1533222561,45.898,45.898
1533222561,64.941,45.898
1533222561,72.754,50.293
1533222561,47.852,48.828
1533222561,37.109,46.387
1533222561,44.922,46.387
1533222561,65.918,48.34
1533222561,65.918,46.875
1533222561,46.387,48.828
1533222561,44.922,48.828
1533222561,52.246,44.434
1533222561,64.453,43.457
1533222561,68.359,43.457
1533222561,58.105,45.898
1533222561,50.781,43.945
1533222561,50.293,39.551
1533222561,61.035,40.039
1533222561,67.383,37.598
1533222561,55.664,38.086
1533222561,39.062,39.062
1533222561,43.457,40.039
1533222561,64.453,41.504
1533222561,72.754,38.574
1533222561,80.078,47.363
1533222561,76.172,53.711
1533222561,42.48,41.016
1533222561,40.527,35.645
1533222561,61.523,42.969
1533222561,60.547,41.016
1533222561,56.152,33.203
1533222561,45.898,29.297
1533222561,47.363,25.879
1533222561,63.965,29.785
1533222561,55.664,30.762
1533222561,36.621,31.738
1533222561,32.227,34.668
1533222561,45.41,33.203
1533222561,65.43,31.25
1533222561,58.594,34.668
1533222561,43.945,37.598
1533222561,42.969,39.551
1533222561,46.875,45.41
1533222561,55.664,52.246
1533222561,56.641,52.734
1533222561,43.945,52.734
1533222561,33.691,56.152
1533222561,35.156,53.711
1533222561,52.246,53.223
1533222561,62.5,56.152
1533222561,48.34,51.27
1533222561,38.086,49.805
1533222561,41.016,45.41
1533222561,56.641,46.387
1533222561,65.43,50.781
1533222561,48.828,46.387
1533222561,35.156,45.41
1533222561,40.527,44.922
1533222561,49.805,41.992
1533222561,53.223,41.016
1533222561,40.039,41.504
1533222561,31.738,46.875
1533222561,42.969,52.734
1533222561,50.781,46.387
1533222561,56.152,41.992
1533222561,44.434,42.48
1533222561,22.461,39.551
1533222561,16.602,35.645
1533222561,34.18,36.621
1533222561,54.688,41.992
1533222561,49.805,42.969
1533222561,34.18,41.016
1533222561,28.809,39.062
1533222561,55.176,53.223
1533222561,78.613,68.359
1533222561,68.848,63.965
1533222561,47.852,61.523
1533222561,35.156,58.594
1533222561,55.176,56.641
1533222561,71.289,55.664
1533222561,52.246,48.34
1533222561,36.133,50.781
1533222561,29.297,49.316
1533222561,33.691,42.969
1533222561,52.246,42.48
1533222561,46.875,43.945
1533222561,36.621,44.434
1533222561,27.832,38.574
1533222561,22.461,35.645
1533222561,42.48,37.109
1533222561,51.758,36.621
1533222561,35.645,35.645
1533222561,29.297,34.18
1533222561,39.062,43.945
1533222561,71.289,64.453
1533222562,106.445,88.379
1533222562,91.309,97.168
1533222562,50.781,70.801
1533222562,39.551,53.711
1533222562,52.734,52.246
1533222562,64.941,54.199
1533222562,54.199,50.781
1533222562,27.832,44.922
1533222562,24.414,44.434
1533222562,32.715,40.039
1533222562,40.039,38.574
1533222562,38.574,48.34
1533222562,25.879,57.129
1533222562,29.297,59.57
1533222562,45.41,58.594
1533222562,58.105,56.152
1533222562,45.898,49.316
1533222562,37.598,51.758
1533222562,52.734,62.012
1533222562,72.266,72.266
1533222562,73.73,67.383
1533222562,49.316,51.27
1533222562,21.973,41.016
1533222562,20.02,35.156
1533222562,31.738,34.668
1533222562,36.621,31.25
1533222562,31.25,28.809
1533222562,26.367,34.18
1533222562,37.109,44.434
1533222562,44.434,45.898
1533222562,49.805,36.133
1533222562,52.246,35.645
1533222562,31.738,36.621
1533222562,17.578,35.645
1533222562,31.25,35.156
1533222562,40.527,30.762
1533222562,45.898,35.645
1533222562,46.875,44.434
1533222562,26.367,41.992
1533222562,17.09,38.086
1533222562,26.855,31.738
1533222562,43.457,36.621
1533222562,24.902,40.039
1533222562,-1.465,34.668
1533222562,10.742,35.156
1533222562,31.25,32.715
1533222562,38.086,32.715
1533222562,24.414,30.762
1533222562,12.695,29.785
1533222562,20.996,28.809
1533222562,37.598,31.25
1533222562,46.875,32.227
1533222562,35.156,28.32
1533222562,20.996,34.18
1533222562,22.949,34.18
1533222562,37.598,30.273
1533222562,46.875,32.227
1533222562,34.18,30.273
1533222562,12.207,31.738
1533222562,6.348,32.715
1533222562,24.414,32.715
1533222562,45.898,33.691
1533222562,41.992,33.691
1533222562,25.879,35.645
1533222562,22.949,36.621
1533222562,35.645,37.598
1533222562,42.48,31.25
1533222562,35.156,32.715
1533222562,22.461,34.18
1533222562,36.621,33.691
1533222562,46.387,35.156
1533222562,47.852,31.738
1533222562,44.922,31.738
1533222562,23.438,39.551
1533222562,11.719,41.016
1533222562,18.066,36.621
1533222562,35.156,35.645
1533222562,40.527,36.133
1533222562,23.438,37.109
1533222562,1.465,35.156
1533222562,4.395,29.785
1533222562,28.32,32.227
1533222562,41.016,37.598
1533222562,20.02,35.645
1533222562,-4.883,29.785
1533222562,5.371,31.25
1533222562,31.25,38.574
1533222562,57.129,49.316
1533222562,35.156,39.551
1533222562,-9.766,24.902
1533222562,-7.812,22.461
1533222562,12.695,22.949
1533222562,23.438,20.996
1533222562,7.812,17.09
1533222562,-16.602,18.555
1533222562,-11.719,16.113
1533222562,8.301,16.602
1533222562,16.602,17.578
1533222562,13.184,18.555
1533222562,5.371,20.02
1533222562,9.277,19.043
1533222562,21.973,19.043
1533222562,30.273,20.02
1533222562,24.902,22.461
1533222562,7.324,24.414
1533222562,-0.977,22.461
1533222562,16.602,23.926
1533222562,31.25,22.461
1533222562,23.438,22.461
1533222562,7.812,21.973
1533222562,-2.93,19.043
1533222562,8.301,20.996
1533222562,32.227,24.902
1533222562,34.668,26.367
1533222562,13.672,26.367
1533222562,8.301,29.297
1533222562,22.461,25.879
1533222562,37.598,27.832
1533222562,45.41,33.203
1533222562,28.809,31.738
1533222562,11.719,32.227
1533222562,22.949,34.668
1533222562,38.086,35.156
1533222562,41.016,32.227
1533222562,27.832,30.762
1533222562,12.207,32.227
1533222562,15.625,31.738
1533222562,29.785,33.691
1533222562,33.691,34.18
1533222562,23.438,31.738
1533222562,14.16,32.227
1533222562,18.555,37.598
1533222562,29.785,37.598
1533222562,28.809,31.738
1533222562,22.461,34.18
1533222562,20.996,39.551
1533222562,23.438,35.156
1533222562,35.645,31.738
1533222562,47.852,32.227
1533222562,46.875,32.227
1533222562,29.297,33.691
1533222562,26.855,34.18
1533222562,47.363,33.203
1533222562,52.734,33.691
1533222562,39.062,34.18
1533222562,20.996,35.645
1533222562,9.277,37.109
1533222562,20.996,33.691
1533222562,37.109,33.691
1533222562,35.645,39.551
1533222562,18.555,41.016
1533222562,7.812,37.598
1533222562,21.973,37.109
1533222562,42.48,33.691
1533222562,35.156,33.691
1533222562,12.695,38.086
1533222562,12.695,38.574
1533222562,28.32,36.133
1533222562,43.457,36.133
1533222562,49.316,41.504
1533222562,37.109,41.504
1533222562,27.832,42.969
1533222562,37.598,42.48
1533222562,56.152,44.434
1533222562,63.965,51.758
1533222562,43.945,50.293
1533222562,22.461,47.363
1533222562,23.438,43.945
1533222562,42.969,44.922
1533222562,55.664,47.852
1533222562,52.734,48.828
1533222562,41.992,50.781
1533222562,19.531,44.434
1533222562,18.066,40.527
1533222562,32.715,41.504
1533222562,30.273,43.945
1533222562,28.32,48.34
1533222562,39.062,46.875
1533222562,55.176,43.945
1533222562,68.848,55.664
1533222562,59.57,58.105
1533222562,38.086,54.688
1533222562,44.922,59.57
1533222562,59.57,61.523
1533222562,61.035,55.176
1533222562,51.758,53.223
1533222562,32.715,47.363
1533222562,32.715,41.016
1533222562,50.293,40.527
1533222562,61.035,44.434
1533222562,59.082,48.34
1533222562,33.691,46.387
1533222562,14.648,43.457
1533222562,23.438,45.41
1533222562,29.785,42.48
1533222562,26.367,44.434
1533222562,10.742,47.363
1533222562,4.395,41.016
1533222562,16.113,38.574
1533222562,29.785,39.062
1533222562,28.32,41.504
1533222562,12.695,38.086
1533222562,15.137,42.48
1533222562,35.156,51.27
1533222562,48.34,47.363
1533222562,48.34,42.969
1533222562,28.32,38.574
1533222562,22.461,42.969
1533222562,33.203,45.898
1533222562,42.48,40.527
1533222562,49.316,41.504
1533222562,41.504,46.387
1533222562,20.508,41.504
1533222562,14.648,36.621
1533222562,35.645,38.574
1533222562,24.902,34.668
1533222562,12.207,34.18
1533222562,10.254,35.645
1533222562,8.789,35.645
1533222562,27.344,35.645
1533222562,41.016,34.18
1533222562,30.762,39.062
1533222562,3.906,42.48
1533222562,8.789,39.551
1533222562,35.645,42.969
1533222562,49.805,45.41
1533222562,38.574,43.457
1533222562,17.578,41.504
1533222562,27.344,36.621
1533222562,42.48,38.574
1533222562,47.363,45.41
1533222562,41.016,43.945
1533222562,25.391,41.504
1533222562,30.273,39.551
1533222562,40.039,42.969
1533222562,49.316,44.434
1533222562,43.457,42.969
1533222562,21.484,40.527
1533222562,11.23,39.551
1533222562,20.996,41.504
1533222562,36.621,37.109
1533222562,39.551,39.551
1533222562,25.391,42.969
1533222562,17.578,40.039
1533222562,31.25,44.922
1533222562,46.387,46.875
1533222562,55.176,45.898
1533222562,40.527,46.387
1533222562,27.832,40.527
1533222562,37.109,39.062
1533222562,52.246,44.922
1533222562,57.617,49.316
1533222562,43.945,49.316
1533222562,27.832,45.898
1533222562,27.344,44.922
1533222562,41.992,45.898
1533222563,42.969,46.387
1533222563,27.832,48.34
1533222563,10.254,48.34
1533222563,14.648,46.875
1533222563,40.039,44.922
1533222563,52.246,45.898
1533222563,40.039,44.922
1533222563,25.391,41.992
1533222563,30.273,41.504
1533222563,41.016,41.992
1533222563,47.852,47.363
1533222563,34.668,44.434
1533222563,12.207,35.645
1533222563,14.648,40.039
1533222563,30.273,45.898
1533222563,40.527,50.293
1533222563,37.598,53.223
1533222563,22.461,49.316
1533222563,18.066,49.316
1533222563,32.715,48.34
1533222563,45.898,47.852
1533222563,40.039,47.852
1533222563,26.855,45.41
1533222563,13.672,41.992
1533222563,18.555,39.062
1533222563,30.273,39.062
1533222563,20.508,40.527
1533222563,1.953,38.574
1533222563,-2.93,34.668
1533222563,12.207,29.785
1533222563,31.25,23.926
1533222563,35.645,26.367
1533222563,21.484,27.832
1533222563,13.184,26.855
1533222563,25.391,32.227
1533222563,34.668,31.25
1533222563,35.645,31.25
1533222563,24.414,33.691
1533222563,12.695,35.645
1533222563,22.949,38.086
1533222563,41.504,37.109
1533222563,37.598,37.598
1533222563,20.996,37.109
1533222563,12.207,38.086
1533222563,12.695,38.574
1533222563,25.391,37.598
1533222563,38.086,35.645
1533222563,23.438,29.785
1533222563,0.977,29.297
1533222563,10.254,34.18
1533222563,30.762,38.574
1533222563,39.062,42.48
1533222563,35.645,47.363
1533222563,18.555,45.898
1533222563,15.137,40.039
1533222563,31.25,36.621
1533222563,38.086,35.645
1533222563,31.25,35.645
1533222563,18.066,35.156
1533222563,9.277,27.832
1533222563,20.508,23.438
1533222563,37.598,24.902
1533222563,34.18,21.484
1533222563,16.113,19.043
1533222563,6.836,20.996
1533222563,15.137,19.043
1533222563,30.762,18.555
1533222563,32.715,19.043
1533222563,19.531,20.996
1533222563,8.789,21.973
1533222563,20.996,22.461
1533222563,36.621,24.902
1533222563,39.551,26.855
1533222563,22.949,25.391
1533222563,9.766,23.926
1533222563,15.625,23.926
1533222563,37.598,26.367
1533222563,48.828,29.785
1533222563,32.227,30.273
1533222563,21.484,34.18
1533222563,28.32,32.715
1533222563,46.387,29.785
1533222563,56.152,33.691
1533222563,34.668,29.785
1533222563,18.555,29.297
1533222563,31.25,31.25
1533222563,45.898,30.762
1533222563,52.734,31.25
1533222563,44.922,27.832
1533222563,33.691,28.32
1533222563,37.109,27.832
1533222563,55.176,29.785
1533222563,56.152,33.691
1533222563,37.109,28.32
1533222563,25.879,27.344
1533222563,27.344,28.32
1533222563,40.527,28.809
1533222563,51.758,29.297
1533222563,37.598,28.32
1533222563,17.09,29.785
1533222563,23.438,33.691
1533222563,36.133,35.156
1533222563,48.828,33.691
1533222563,48.34,35.645
1533222563,27.832,40.039
1533222563,18.066,34.18
1533222563,26.855,32.715
1533222563,43.457,33.691
1533222563,46.387,26.855
1533222563,20.996,29.297
1533222563,17.09,38.574
1533222563,39.062,38.574
1533222563,57.129,35.156
1533222563,57.617,32.227
1533222563,38.086,35.645
1533222563,28.32,42.969
1533222563,44.434,42.48
1533222563,54.199,39.551
1533222563,45.898,37.109
1533222563,23.438,32.227
1533222563,8.301,31.738
1533222563,18.555,33.691
1533222563,32.227,33.203
1533222563,30.762,33.691
1533222563,11.23,38.086
1533222563,-8.789,38.086
1533222563,-3.418,34.18
1533222563,23.926,30.762
1533222563,35.645,32.715
1533222563,8.789,32.715
1533222563,-11.719,30.273
1533222563,-1.953,32.715
1533222563,10.254,36.133
1533222563,14.16,33.691
1533222563,7.812,29.785
1533222563,-10.254,26.855
1533222563,-7.324,27.832
1533222563,14.16,32.227
1533222563,26.855,33.691
1533222563,19.043,29.785
1533222563,2.93,27.832
1533222563,9.766,29.785
1533222563,25.879,30.762
1533222563,36.133,32.227
1533222563,32.715,29.297
1533222563,15.137,27.344
1533222563,13.184,32.227
1533222563,28.32,37.109
1533222563,32.227,36.133
1533222563,20.996,34.18
1533222563,15.137,38.086
1533222563,9.277,40.527
1533222563,12.695,37.598
1533222563,27.832,33.203
1533222563,25.391,30.762
1533222563,13.184,33.691
1533222563,7.324,34.668
1533222563,13.184,33.203
1533222563,35.156,33.203
1533222563,37.598,32.715
1533222563,7.324,30.273
1533222563,-2.441,24.902
1533222563,19.043,26.855
1533222563,30.762,29.297
1533222563,30.762,25.879
1533222563,24.414,28.809
1533222563,12.695,32.227
1533222563,23.438,35.645
1533222563,42.48,39.062
1533222563,43.457,37.598
1533222563,33.203,39.551
1533222563,16.602,40.039
1533222563,12.695,38.574
1533222563,20.508,40.527
1533222563,26.855,41.016
1533222563,21.484,35.645
1533222563,7.812,33.691
1533222563,9.277,52.246
1533222563,17.09,54.688
1533222563,20.996,45.898
1533222563,22.461,50.781
1533222563,12.695,48.34
1533222563,9.277,37.598
1533222563,30.762,31.738
1533222563,41.016,28.32
1533222563,39.062,29.785
1533222563,29.297,29.785
1533222563,19.043,30.762
1533222563,28.809,31.738
1533222563,41.504,27.832
1533222563,41.504,31.25
1533222563,19.531,32.227
1533222563,12.207,31.25
1533222563,26.855,30.273
1533222563,34.668,27.832
1533222563,34.668,32.227
1533222563,21.484,36.133
1533222563,13.184,31.738
1533222563,20.508,32.715
1533222563,38.574,33.203
1533222563,46.875,31.25
1533222563,28.809,32.715
1533222563,13.184,31.25
1533222563,15.625,31.738
1533222563,34.18,35.156
1533222563,45.898,35.156
1533222563,34.668,38.086
1533222563,20.996,40.039
1533222563,26.855,43.457
1533222563,44.922,45.898
1533222563,43.945,41.992
1533222563,21.484,42.969
1533222563,3.418,45.898
1533222563,9.277,48.34
1533222563,31.738,44.922
1533222563,40.039,41.992
1533222563,23.926,43.945
1533222563,2.93,41.016
1533222563,2.93,39.551
1533222563,25.391,38.574
1533222563,37.598,37.109
1533222563,24.902,37.109
1533222563,8.301,36.133
1533222563,13.672,35.645
1533222563,33.203,34.18
1533222563,42.969,36.621
1533222563,35.645,38.086
1533222563,31.738,33.691
1533222563,35.645,34.668
1533222563,47.852,35.645
1533222563,64.453,34.668
1533222563,61.523,34.668
1533222563,40.527,29.785
1533222563,28.809,26.367
1533222563,38.574,27.832
1533222563,56.152,30.762
1533222563,51.758,30.273
1533222563,29.785,30.762
1533222563,21.484,29.785
1533222563,39.062,29.297
1533222563,56.152,30.762
1533222563,50.781,26.855
1533222563,37.109,21.973
1533222563,35.645,26.367
1533222563,51.27,29.297
1533222563,61.523,27.832
1533222563,58.105,28.32
1533222563,41.504,27.832
1533222563,24.902,31.738
1533222563,28.32,34.18
1533222563,43.457,28.809
1533222563,54.199,24.902
1533222563,40.527,23.926
1533222563,13.184,18.066
1533222563,8.301,18.066
1533222563,29.785,26.855
1533222564,35.645,26.367
1533222564,20.508,24.902
1533222564,11.23,32.715
1533222564,15.137,35.645
1533222564,28.32,34.668
1533222564,46.387,33.203
1533222564,34.18,37.109
1533222564,1.465,40.039
1533222564,-0.977,39.062
1533222564,19.043,35.156
1533222564,30.273,34.18
1533222564,20.996,38.086
1533222564,1.953,37.109
1533222564,1.465,37.109
1533222564,19.531,38.574
1533222564,37.109,39.062
1533222564,31.25,40.039
1533222564,3.906,38.574
1533222564,-3.906,38.574
1533222564,12.695,39.062
1533222564,34.668,43.457
1533222564,32.715,44.434
1533222564,14.16,39.551
1533222564,7.324,41.504
1533222564,18.555,45.41
1533222564,32.227,42.969
1533222564,32.227,40.527
1533222564,14.16,38.574
1533222564,-6.348,37.598
1533222564,4.395,35.156
1533222564,33.203,34.668
1533222564,40.527,40.527
1533222564,22.461,41.016
1533222564,0.488,35.156
1533222564,11.23,35.156
1533222564,36.133,38.086
1533222564,47.363,36.133
1533222564,37.598,34.18
1533222564,11.23,37.109
1533222564,11.719,36.133
1533222564,34.18,33.691
1533222564,36.133,36.133
1533222564,21.484,34.668
1533222564,16.602,38.086
1533222564,21.973,40.039
1533222564,32.715,32.715
1533222564,50.293,30.762
1533222564,40.039,34.668
1533222564,17.578,34.668
1533222564,17.578,31.25
1533222564,37.598,32.715
1533222564,49.805,31.738
1533222564,40.527,29.297
1533222564,24.902,29.785
1533222564,23.438,31.738
1533222564,36.133,33.203
1533222564,45.898,34.18
1533222564,33.203,29.297
1533222564,17.09,29.785
1533222564,16.602,38.574
1533222564,33.691,38.086
1533222564,53.711,32.715
1533222564,35.156,33.691
1533222564,10.742,34.668
1533222564,6.836,30.273
1533222564,14.648,26.855
1533222564,26.367,29.785
1533222564,29.785,35.645
1533222564,18.555,32.715
1533222564,12.695,31.25
1533222564,18.555,29.297
1533222564,32.227,25.879
1533222564,35.645,24.902
1533222564,17.578,25.879
1533222564,5.371,31.25
1533222564,13.184,31.25
1533222564,31.25,24.902
1533222564,40.527,29.297
1533222564,27.832,25.391
1533222564,10.742,18.555
1533222564,15.137,21.973
1533222564,24.902,22.461
1533222564,31.738,25.391
1533222564,31.25,28.32
1533222564,21.973,27.832
1533222564,18.066,29.297
1533222564,29.785,28.32
1533222564,37.109,31.738
1533222564,21.484,36.621
1533222564,20.02,40.527
1533222564,21.484,37.598
1533222564,20.996,31.738
1533222564,38.086,32.715
1533222564,35.156,35.645
1533222564,5.859,34.668
1533222564,7.324,35.156
1533222564,31.738,38.086
1533222564,45.898,35.156
1533222564,41.992,36.621
1533222564,19.043,35.645
1533222564,16.602,33.691
1533222564,50.293,40.039
1533222564,61.523,49.805
1533222564,53.223,54.199
1533222564,39.551,45.41
1533222564,27.344,39.551
1533222564,28.809,47.363
1533222564,34.668,52.734
1533222564,33.691,41.992
1533222564,11.719,37.109
1533222564,-3.418,42.48
1533222564,4.883,43.945
1533222564,18.555,38.574
1533222564,22.461,39.551
1533222564,5.371,43.457
1533222564,2.441,41.992
1533222564,19.531,38.086
1533222564,36.133,34.18
1533222564,41.992,36.133
1533222564,20.996,38.086
1533222564,11.23,43.457
1533222564,24.414,43.945
1533222564,34.18,39.551
1533222564,36.133,37.109
1533222564,27.832,39.062
1533222564,20.996,44.434
1533222564,22.461,43.457
1533222564,33.203,40.527
1533222564,40.527,42.48
1533222564,25.391,43.945
1533222564,4.395,40.039
1533222564,10.742,41.016
1533222564,28.32,42.48
1533222564,41.016,42.969
1533222564,26.367,43.457
1533222564,4.883,39.551
1533222564,13.184,41.992
1533222564,29.785,46.387
1533222564,44.922,47.363
1533222564,36.621,53.223
1533222564,22.461,53.223
1533222564,25.391,46.387
1533222564,30.273,43.945
1533222564,39.062,43.945
1533222564,27.832,40.527
1533222564,2.93,41.504
1533222564,5.859,44.434
1533222564,15.625,46.387
1533222564,20.996,43.457
1533222564,31.25,39.551
1533222564,29.297,41.016
1533222564,20.996,38.574
1533222564,33.691,33.203
1533222564,57.617,31.738
1533222564,61.523,35.156
1533222564,42.48,33.203
1533222564,29.785,28.809
1533222564,41.992,34.668
1533222564,52.246,42.48
1533222564,45.898,40.527
1533222564,26.855,37.109
1533222564,9.277,42.48
1533222564,13.184,40.527
1533222564,28.809,35.156
1533222564,44.922,35.645
1533222564,40.527,41.016
1533222564,23.438,43.457
1533222564,22.461,35.645
1533222564,28.32,35.156
1533222564,35.156,38.574
1533222564,27.832,38.086
1533222564,10.742,38.574
1533222564,7.812,41.504
1533222564,18.066,45.41
1533222564,34.668,48.828
1533222564,32.715,46.875
1533222564,13.672,44.434
1533222564,11.23,45.41
1533222564,23.438,47.852
1533222564,31.738,45.898
1533222564,39.551,46.875
1533222564,26.855,46.875
1533222564,10.742,47.852
1533222564,28.32,47.363
1533222564,51.758,47.363
1533222564,50.293,48.828
1533222564,27.344,42.48
1533222564,8.789,44.434
1533222564,31.738,48.828
1533222564,54.199,43.457
1533222564,41.992,39.551
1533222564,27.344,41.504
1533222564,22.461,41.504
1533222564,28.809,39.062
1533222564,42.48,38.574
1533222564,48.828,40.039
1533222564,31.25,36.133
1533222564,20.02,34.668
1533222564,28.809,40.039
1533222564,41.016,36.621
1533222564,38.086,35.156
1533222564,29.785,39.062
1533222564,18.066,38.574
1533222564,20.02,37.109
1533222564,41.504,38.574
1533222564,34.18,36.621
1533222564,14.648,39.062
1533222564,5.859,41.992
1533222564,18.066,42.48
1533222564,39.551,41.016
1533222564,41.016,39.062
1533222564,34.668,39.062
1533222564,20.508,34.668
1533222564,16.602,35.156
1533222564,44.434,41.016
1533222564,59.57,39.062
1533222564,46.875,33.691
1533222564,29.297,33.691
1533222564,25.391,35.156
1533222564,43.457,30.762
1533222564,58.594,28.32
1533222564,44.922,35.156
1533222564,17.09,35.156
1533222564,9.277,25.879
1533222564,43.945,25.879
1533222564,69.336,25.391
1533222564,23.438,25.391
1533222564,-13.184,34.668
1533222564,-16.602,34.668
1533222564,-15.137,30.273
1533222564,-0.977,30.762
1533222564,-7.812,28.32
1533222564,-30.273,25.391
1533222564,-30.273,28.809
1533222564,-20.02,27.344
1533222564,-2.93,25.879
1533222564,5.371,26.855
1533222564,0,26.855
1533222564,-7.324,26.855
1533222564,1.465,27.344
1533222564,15.137,26.855
1533222564,17.09,28.32
1533222564,11.719,27.344
1533222564,-9.766,26.367
1533222564,-3.418,27.344
1533222564,21.484,27.344
1533222564,27.832,24.414
1533222564,21.973,25.879
1533222564,7.812,26.855
1533222564,14.648,29.785
1533222564,33.203,32.715
1533222564,39.551,31.738
1533222564,33.203,30.273
1533222564,15.137,30.273
1533222564,18.555,34.18
1533222564,27.344,32.227
1533222565,35.156,25.879
1533222565,31.738,21.973
1533222565,5.371,24.414
1533222565,7.324,29.297
1533222565,31.25,24.902
1533222565,46.875,21.973
1533222565,39.062,27.344
1533222565,23.926,30.273
1533222565,29.297,28.809
1533222565,37.109,28.809
1533222565,41.016,29.785
1533222565,35.645,29.785
1533222565,22.461,26.855
1533222565,18.555,26.367
1533222565,33.691,28.32
1533222565,47.363,32.227
1533222565,41.016,31.25
1533222565,19.043,30.762
1533222565,17.578,33.203
1533222565,27.344,33.203
1533222565,39.551,35.156
1533222565,41.016,33.691
1533222565,25.391,36.621
1533222565,16.113,34.668
1533222565,25.879,32.715
1533222565,47.363,35.156
1533222565,50.293,33.203
1533222565,26.855,31.25
1533222565,3.418,26.855
1533222565,4.883,24.414
1533222565,33.691,28.809
1533222565,36.621,33.203
1533222565,20.02,32.715
1533222565,22.949,34.18
1533222565,28.809,36.133
1533222565,39.551,34.668
1533222565,45.898,33.203
1533222565,33.203,31.738
1533222565,20.996,32.227
1533222565,26.367,36.621
1533222565,36.621,36.621
1533222565,39.551,43.945
1533222565,30.273,50.781
1533222565,14.648,47.363
1533222565,6.348,50.781
1533222565,19.043,51.758
1533222565,32.227,50.781
1533222565,21.484,56.641
1533222565,-0.488,58.105
1533222565,-4.883,54.688
1533222565,17.578,57.617
1533222565,32.227,54.688
1533222565,33.203,54.688
1533222565,17.578,57.617
1533222565,12.695,53.711
1533222565,41.504,56.152
1533222565,49.316,59.57
1533222565,32.715,57.129
1533222565,22.461,57.617
1533222565,20.996,56.641
1533222565,20.02,50.293
1533222565,28.809,45.898
1533222565,32.715,48.34
1533222565,18.066,49.805
1533222565,13.672,49.805
1533222565,23.438,49.316
1533222565,33.203,47.363
1533222565,43.945,47.852
1533222565,36.621,46.875
1533222565,17.09,43.457
1533222565,22.461,43.945
1533222565,35.645,44.434
1533222565,40.527,47.852
1533222565,28.32,42.969
1533222565,12.695,41.504
1533222565,19.531,40.039
1533222565,40.527,39.551
1533222565,55.176,45.41
1533222565,35.645,45.898
1533222565,13.672,44.922
1533222565,15.625,41.992
1533222565,36.133,41.504
1533222565,48.828,44.434
1533222565,42.48,40.039
1533222565,35.645,38.574
1533222565,22.461,35.645
1533222565,25.391,30.273
1533222565,35.156,31.738
1533222565,27.344,34.18
1533222565,14.648,35.156
1533222565,3.906,36.133
1533222565,21.484,35.156
1533222565,31.25,31.738
1533222565,21.973,35.645
1533222565,14.648,39.551
1533222565,8.789,34.668
1533222565,24.902,33.691
1533222565,39.551,32.715
1533222565,38.086,27.832
1533222565,24.414,30.273
1533222565,15.625,32.715
1533222565,34.668,33.203
1533222565,49.316,40.039
1533222565,43.945,39.551
1533222565,29.785,33.691
1533222565,21.973,33.691
1533222565,27.344,30.762
1533222565,41.504,30.273
1533222565,40.527,33.691
1533222565,18.555,34.668
1533222565,3.418,30.762
1533222565,11.719,30.273
1533222565,29.785,31.25
1533222565,33.203,30.762
1533222565,16.602,26.367
1533222565,-0.488,23.438
1533222565,3.418,24.902
1533222565,22.461,26.855
1533222565,34.668,28.32
1533222565,26.855,28.809
1533222565,12.207,28.32
1533222565,12.207,29.785
1533222565,23.926,23.438
1533222565,35.645,18.555
1533222565,30.273,25.879
1533222565,17.578,25.879
1533222565,21.484,24.902
1533222565,28.32,25.391
1533222565,32.227,26.855
1533222565,22.461,25.391
1533222565,4.883,23.926
1533222565,12.207,30.273
1533222565,38.574,30.273
1533222565,45.898,30.762
1533222565,25.879,32.227
1533222565,9.277,30.762
1533222565,13.672,35.156
1533222565,30.762,32.715
1533222565,48.34,31.25
1533222565,41.992,33.203
1533222565,27.344,33.691
1533222565,21.973,32.227
1533222565,28.32,33.203
1533222565,50.781,34.668
1533222565,47.363,31.25
1533222565,23.438,26.855
1533222565,16.602,27.344
1533222565,22.949,26.855
1533222565,46.875,29.297
1533222565,61.523,40.039
1533222565,40.039,41.504
1533222565,22.461,34.668
1533222565,33.691,30.762
1533222565,45.898,31.25
1533222565,53.711,32.715
1533222565,40.039,32.227
1533222565,25.391,32.227
1533222565,30.273,31.738
1533222565,47.363,29.785
1533222565,56.152,29.297
1533222565,48.34,35.645
1533222565,50.293,44.434
1533222565,52.734,46.387
1533222565,58.594,42.969
1533222565,62.988,39.062
1533222565,50.293,37.109
1533222565,37.598,38.574
1533222565,29.297,38.086
1533222565,51.27,34.668
1533222565,55.664,33.203
1533222565,35.156,35.156
1533222565,31.25,34.668
1533222565,35.156,31.738
1533222565,45.898,31.738
1533222565,54.199,30.762
1533222565,45.898,27.832
1533222565,33.203,31.738
1533222565,37.109,39.062
1533222565,46.387,39.062
1533222565,44.434,30.762
1533222565,35.645,27.344
1533222565,26.855,33.203
1533222565,18.066,36.133
1533222565,19.531,34.18
1533222565,45.41,38.574
1533222565,50.293,42.48
1533222565,23.926,33.691
1533222565,9.277,24.414
1533222565,14.648,22.949
1533222565,32.227,22.949
1533222565,40.527,20.996
1533222565,23.438,20.996
1533222565,17.578,20.996
1533222565,27.344,22.461
1533222565,37.109,24.902
1533222565,37.598,23.438
1533222565,23.438,22.949
1533222565,17.578,25.391
1533222565,15.137,22.949
1533222565,31.25,23.926
1533222565,45.898,23.438
1533222565,21.484,20.996
1533222565,0.488,18.555
1533222565,17.09,23.438
1533222565,38.086,26.855
1533222565,44.922,26.855
1533222565,33.203,28.32
1533222565,16.602,28.32
1533222565,22.949,28.32
1533222565,36.133,27.832
1533222565,40.527,27.832
1533222565,28.32,32.227
1533222565,17.09,34.18
1533222565,20.02,33.691
1533222565,43.457,33.203
1533222565,57.129,32.715
1533222565,31.738,32.227
1533222565,5.859,29.297
1533222565,18.555,32.715
1533222565,39.551,31.738
1533222565,53.223,29.785
1533222565,51.758,33.203
1533222565,29.297,31.25
1533222565,12.207,24.902
1533222565,28.32,24.902
1533222565,47.363,21.973
1533222565,40.527,25.879
1533222565,26.367,35.156
1533222565,14.16,29.297
1533222565,17.578,26.367
1533222565,25.879,28.32
1533222565,28.809,26.855
1533222565,17.578,26.855
1533222565,4.883,26.855
1533222565,13.184,29.785
1533222565,35.645,33.691
1533222565,33.691,30.762
1533222565,10.254,30.273
1533222565,3.418,30.273
1533222565,19.043,31.25
1533222565,31.25,29.297
1533222565,29.785,26.855
1533222565,19.531,31.25
1533222565,5.859,31.738
1533222565,8.301,30.273
1533222565,32.227,34.18
1533222565,43.457,33.691
1533222565,36.133,33.203
1533222565,17.578,32.227
1533222565,7.324,23.438
1533222565,24.902,20.996
1533222565,39.062,26.855
1533222565,32.227,30.273
1533222565,17.578,32.715
1533222565,14.648,27.832
1533222565,24.902,22.461
1533222566,37.109,23.438
1533222566,26.855,27.344
1533222566,7.324,29.297
1533222566,6.348,27.832
1533222566,28.32,31.25
1533222566,39.062,32.227
1533222566,28.809,27.832
1533222566,11.23,24.902
1533222566,1.953,25.391
1533222566,23.926,24.902
1533222566,39.551,24.414
1533222566,29.297,23.438
1533222566,16.113,21.973
1533222566,15.625,25.391
1533222566,28.809,26.367
1533222566,44.434,24.414
1533222566,47.363,28.809
1533222566,22.461,29.785
1533222566,15.137,27.832
1533222566,38.086,32.227
1533222566,64.453,39.062
1533222566,68.359,39.062
1533222566,32.715,30.273
1533222566,14.648,25.879
1533222566,35.156,27.832
1533222566,51.27,34.18
1533222566,52.246,35.156
1533222566,29.785,33.203
1533222566,15.137,33.691
1533222566,25.879,34.668
1533222566,44.434,35.645
1533222566,54.688,34.668
1533222566,42.48,32.715
1533222566,24.902,35.156
1533222566,27.344,32.715
1533222566,37.109,30.273
1533222566,49.316,32.227
1533222566,37.109,29.297
1533222566,21.973,30.762
1533222566,27.832,33.691
1533222566,42.969,33.691
1533222566,53.223,34.668
1533222566,36.133,37.598
1533222566,25.391,42.48
1533222566,31.738,39.551
1533222566,43.945,39.551
1533222566,60.547,44.922
1533222566,50.781,41.992
1533222566,30.762,43.457
1533222566,27.832,46.387
1533222566,34.668,42.48
1533222566,45.41,39.062
1533222566,43.457,39.062
1533222566,17.09,37.598
1533222566,-1.465,31.738
1533222566,16.602,27.832
1533222566,39.062,32.715
1533222566,37.598,36.621
1533222566,24.414,38.086
1533222566,20.508,38.086
1533222566,28.809,33.203
1533222566,41.992,35.156
1533222566,54.199,39.551
1533222566,38.086,41.504
1533222566,14.648,40.039
1533222566,23.926,40.039
1533222566,53.223,43.945
1533222566,70.312,44.922
1533222566,52.734,48.828
1533222566,39.062,47.852
1533222566,48.828,41.992
1533222566,57.617,43.945
1533222566,45.41,44.922
1533222566,19.531,41.504
1533222566,5.371,38.086
1533222566,17.09,39.551
1533222566,40.039,39.551
1533222566,46.387,34.668
1533222566,37.109,35.156
1533222566,25.879,41.016
1533222566,17.578,38.574
1533222566,26.367,33.203
1533222566,40.527,33.691
1533222566,34.18,33.203
1533222566,20.996,34.668
1533222566,22.461,39.551
1533222566,39.551,38.574
1533222566,44.922,39.062
1533222566,39.062,40.039
1533222566,26.855,41.016
1533222566,21.973,41.992
1533222566,35.156,37.109
1533222566,50.781,34.668
1533222566,55.176,38.574
1533222566,33.691,38.574
1533222566,21.484,38.574
1533222566,28.32,37.598
1533222566,48.828,38.574
1533222566,48.34,32.227
1533222566,28.809,32.227
1533222566,22.949,36.133
1533222566,33.203,31.25
1533222566,51.27,34.668
1533222566,53.223,35.645
1533222566,32.227,28.809
1533222566,15.625,25.879
1533222566,29.785,28.809
1533222566,50.781,29.785
1533222566,44.922,30.762
1533222566,26.855,34.668
1533222566,19.531,32.715
1533222566,19.043,27.344
1533222566,41.504,28.809
1533222566,58.594,33.203
1533222566,41.016,34.668
1533222566,25.879,36.621
1533222566,29.785,37.109
1533222566,47.852,39.062
1533222566,56.152,40.039
1533222566,39.062,36.133
1533222566,21.484,29.785
1533222566,23.926,32.715
1533222566,32.715,34.668
1533222566,41.992,34.18
1533222566,36.621,33.203
1533222566,19.043,33.203
1533222566,18.555,36.621
1533222566,30.762,32.227
1533222566,46.387,33.203
1533222566,41.504,34.668
1533222566,26.855,34.18
1533222566,36.621,37.109
1533222566,59.57,40.527
1533222566,67.871,40.527
1533222566,67.383,41.016
1533222566,48.828,41.504
1533222566,36.133,41.992
1533222566,41.016,36.621
1533222566,56.152,30.273
1533222566,57.129,31.738
1533222566,28.32,35.156
1533222566,10.742,34.668
1533222566,16.602,30.273
1533222566,34.668,28.809
1533222566,39.551,36.621
1533222566,23.438,38.086
1533222566,20.02,34.18
1533222566,31.25,34.668
1533222566,47.363,33.203
1533222566,54.688,33.691
1533222566,28.809,32.715
1533222566,9.277,27.832
1533222566,25.879,27.832
1533222566,51.27,33.203
1533222566,52.734,34.668
1533222566,37.109,32.227
1533222566,20.02,32.715
1533222566,20.996,32.715
1533222566,37.598,30.273
1533222566,55.664,34.18
1533222566,50.781,36.621
1533222566,23.438,32.715
1533222566,23.926,33.203
1533222566,44.922,34.18
1533222566,54.199,34.18
1533222566,42.969,35.156
1533222566,23.438,32.715
1533222566,22.461,32.715
1533222566,40.039,37.109
1533222566,61.523,37.109
1533222566,53.223,34.668
1533222566,30.273,36.621
1533222566,19.531,38.574
1533222566,26.855,38.086
1533222566,42.48,36.133
1533222566,45.898,36.133
1533222566,34.668,38.574
1533222566,24.902,37.109
1533222566,39.551,37.109
1533222566,56.152,34.668
1533222566,51.758,33.203
1533222566,38.574,36.133
1533222566,34.668,36.133
1533222566,39.062,33.203
1533222566,54.688,34.18
1533222566,63.477,38.086
1533222566,43.945,39.551
1533222566,32.227,39.062
1533222566,51.758,37.598
1533222566,63.965,38.574
1533222566,61.523,41.016
1533222566,49.805,37.598
1533222566,28.809,38.574
1533222566,31.738,41.504
1533222566,48.828,36.621
1533222566,56.152,36.621
1533222566,50.293,40.039
1533222566,37.598,39.062
1533222566,38.086,38.574
1533222566,49.316,38.574
1533222566,51.758,38.574
1533222566,42.969,42.969
1533222566,25.879,42.969
1533222566,26.367,40.527
1533222566,43.945,37.109
1533222566,48.828,33.691
1533222566,41.992,37.109
1533222566,32.227,38.574
1533222566,21.484,31.738
1533222566,31.25,31.25
1533222566,53.223,35.645
1533222566,39.551,30.762
1533222566,24.414,27.344
1533222566,24.902,29.297
1533222566,30.762,29.297
1533222566,44.922,30.762
1533222566,37.109,28.809
1533222566,17.09,24.414
1533222566,16.602,27.832
1533222566,31.25,29.297
1533222566,51.758,27.832
1533222566,52.246,32.715
1533222566,33.203,34.668
1533222566,26.367,33.691
1533222566,38.086,33.691
1533222566,57.617,33.203
1533222566,55.176,29.785
1533222566,35.645,32.227
1533222566,23.438,32.227
1533222566,30.762,31.738
1533222566,45.41,33.203
1533222566,52.734,35.645
1533222566,40.039,37.109
1533222566,27.344,34.668
1533222566,33.203,31.738
1533222566,44.922,30.273
1533222566,49.316,32.227
1533222566,32.227,35.156
1533222566,22.461,39.062
1533222566,35.156,40.527
1533222566,46.387,34.668
1533222566,48.828,32.715
1533222566,45.41,35.645
1533222566,37.598,38.086
1533222566,38.086,39.062
1533222566,61.523,34.18
1533222566,69.336,32.715
1533222566,47.852,34.668
1533222566,35.156,35.156
1533222566,32.227,32.227
1533222566,44.922,35.645
1533222566,57.617,37.598
1533222566,41.992,35.645
1533222566,24.414,36.133
1533222566,28.809,32.715
1533222566,44.434,31.738
1533222567,50.293,29.297
1533222567,37.109,28.809
1533222567,22.949,30.762
1533222567,16.602,32.715
1533222567,29.297,34.18
1533222567,49.316,30.762
1533222567,45.898,31.25
1533222567,32.227,36.133
1533222567,24.414,35.645
1533222567,25.391,32.715
1533222567,36.133,29.785
1533222567,42.969,29.297
1533222567,25.391,32.715
1533222567,13.672,33.203
1533222567,29.785,32.227
1533222567,50.781,35.645
1533222567,48.828,33.691
1533222567,37.109,34.668
1533222567,28.809,38.086
1533222567,29.785,35.156
1533222567,45.41,36.621
1533222567,54.688,38.086
1533222567,38.086,35.156
1533222567,15.137,34.18
1533222567,17.578,32.715
1533222567,30.762,30.762
1533222567,32.715,32.227
1533222567,28.32,35.645
1533222567,20.508,35.156
1533222567,21.484,37.109
1533222567,40.039,39.062
1533222567,54.688,39.062
1533222567,50.293,41.992
1533222567,33.691,45.41
1533222567,29.297,42.48
1533222567,46.875,34.668
1533222567,60.547,36.133
1533222567,46.387,40.039
1533222567,29.785,41.016
1533222567,33.691,43.457
1533222567,47.363,42.969
1533222567,67.383,38.574
1533222567,62.988,39.551
1533222567,50.781,41.992
1533222567,44.434,41.992
1533222567,43.945,42.48
1533222567,61.035,40.039
1533222567,69.824,43.457
1533222567,47.852,43.945
1533222567,32.715,36.621
1533222567,51.27,32.715
1533222567,72.266,32.227
1533222567,76.172,34.18
1533222567,66.895,38.574
1533222567,59.082,40.039
1533222567,55.664,38.086
1533222567,64.941,39.551
1533222567,64.453,37.598
1533222567,49.316,37.598
1533222567,42.48,42.969
1533222567,45.898,41.016
1533222567,64.941,37.598
1533222567,77.148,39.062
1533222567,56.152,40.039
1533222567,28.809,37.109
1533222567,36.133,37.109
1533222567,56.152,34.668
1533222567,57.129,32.715
1533222567,41.016,36.133
1533222567,24.414,36.133
1533222567,31.25,36.133
1533222567,49.316,38.574
1533222567,56.641,38.574
1533222567,49.316,37.109
1533222567,33.203,38.086
1533222567,29.297,37.109
1533222567,49.805,39.062
1533222567,64.453,41.016
1533222567,50.781,40.527
1533222567,36.133,41.504
1533222567,31.738,38.574
1533222567,31.738,35.645
1533222567,47.852,38.574
1533222567,44.922,43.457
1533222567,17.578,42.969
1533222567,12.207,43.945
1533222567,28.809,44.434
1533222567,49.316,39.551
1533222567,50.293,40.039
1533222567,32.715,38.086
1533222567,25.391,39.551
1533222567,28.809,39.551
1533222567,44.922,41.016
1533222567,46.387,44.434
1533222567,27.832,42.969
1533222567,25.879,46.875
1533222567,36.621,49.805
1533222567,41.016,41.504
1533222567,38.574,39.062
1533222567,14.648,41.016
1533222567,0,41.504
1533222567,10.254,44.434
1533222567,33.203,42.969
1533222567,39.062,42.48
1533222567,19.043,41.504
1533222567,5.859,39.062
1533222567,9.277,40.039
1533222567,28.809,40.039
1533222567,41.016,39.062
1533222567,22.949,41.504
1533222567,4.883,41.016
1533222567,18.555,38.086
1533222567,35.156,36.621
1533222567,35.645,34.668
1533222567,23.438,37.109
1533222567,7.324,36.621
1533222567,10.742,37.598
1533222567,29.785,40.527
1533222567,39.062,35.156
1533222567,21.973,36.133
1533222567,10.254,36.621
1533222567,13.672,34.668
1533222567,26.367,38.574
1533222567,40.527,39.062
1533222567,34.18,37.598
1533222567,9.277,38.574
1533222567,-0.488,37.109
1533222567,21.484,38.574
1533222567,41.504,38.574
1533222567,31.738,35.156
1533222567,3.418,31.25
1533222567,-2.93,31.25
1533222567,20.996,37.598
1533222567,41.016,37.598
1533222567,29.297,26.855
1533222567,9.766,26.855
1533222567,6.836,33.691
1533222567,11.23,30.762
1533222567,25.879,29.785
1533222567,27.832,31.738
1533222567,13.672,31.738
1533222567,4.883,35.156
1533222567,7.812,31.738
1533222567,26.855,28.809
1533222567,40.527,31.25
1533222567,36.621,31.25
1533222567,26.855,34.18
1533222567,29.297,36.133
1533222567,53.711,36.621
1533222567,54.688,37.109
1533222567,31.738,37.109
1533222567,13.672,38.086
1533222567,5.371,37.598
1533222567,25.391,36.621
1533222567,40.039,35.645
1533222567,25.879,36.621
1533222567,3.906,34.668
1533222567,3.418,33.203
1533222567,30.273,34.18
1533222567,41.992,35.156
1533222567,25.879,40.039
1533222567,6.836,39.062
1533222567,0,33.691
1533222567,15.625,36.621
1533222567,36.133,41.016
1533222567,31.25,36.621
1533222567,8.789,34.18
1533222567,4.883,37.598
1533222567,14.648,38.574
1533222567,20.02,37.598
1533222567,11.23,39.062
1533222567,-0.488,46.875
1533222567,4.395,50.293
1533222567,14.648,44.922
1533222567,32.227,43.457
1533222567,41.016,43.457
1533222567,31.25,45.41
1533222567,21.973,47.363
1533222567,27.832,48.34
1533222567,48.34,49.316
1533222567,56.641,44.922
1533222567,39.062,44.922
1533222567,25.391,46.875
1533222567,31.738,45.898
1533222567,50.293,46.387
1533222567,47.852,42.48
1533222567,41.016,40.039
1533222567,30.762,37.109
1533222567,18.555,36.621
1533222567,37.109,37.598
1533222567,46.387,36.133
1533222567,25.879,37.109
1533222567,8.301,39.062
1533222567,13.672,38.574
1533222567,35.645,34.18
1533222567,41.016,34.18
1533222567,33.203,33.203
1533222567,18.555,35.645
1533222567,14.16,41.504
1533222567,31.738,41.016
1533222567,43.457,39.551
1533222567,25.879,39.062
1533222567,15.625,39.551
1533222567,25.879,41.016
1533222567,39.062,40.039
1533222567,56.152,41.016
1533222567,46.387,42.969
1533222567,21.484,43.457
1533222567,13.672,46.387
1533222567,30.762,47.363
1533222567,53.711,44.434
1533222567,41.016,42.48
1533222567,17.578,39.062
1533222567,16.602,40.039
1533222567,33.203,42.969
1533222567,41.504,44.434
1533222567,35.156,46.387
1533222567,19.531,42.48
1533222567,8.789,40.039
1533222567,12.695,37.598
1533222567,35.156,34.18
1533222567,44.434,37.109
1533222567,24.414,37.109
1533222567,11.719,35.156
1533222567,13.672,37.598
1533222567,28.809,34.668
1533222567,32.715,32.227
1533222567,6.836,30.762
1533222567,-1.953,33.203
1533222567,17.09,36.133
1533222567,26.855,36.621
1533222567,31.738,39.062
1533222567,23.926,39.062
1533222567,20.02,40.527
1533222567,32.715,46.387
1533222567,43.945,46.875
1533222567,52.734,46.387
1533222567,48.828,49.316
1533222567,36.133,44.434
1533222567,32.715,44.434
1533222567,43.945,49.805
1533222567,79.59,54.688
1533222567,78.613,52.246
1533222567,40.039,44.922
1533222567,35.156,49.316
1533222567,50.293,50.781
1533222567,65.43,51.758
1533222567,59.082,53.223
1533222567,42.48,44.922
1533222567,41.992,44.434
1533222567,56.641,49.316
1533222567,72.266,53.711
1533222567,61.035,53.711
1533222567,45.41,53.223
1533222567,37.598,53.223
1533222567,45.898,50.781
1533222568,62.5,47.363
1533222568,62.5,47.363
1533222568,41.016,43.945
1533222568,27.832,43.945
1533222568,42.48,48.34
1533222568,53.711,48.828
1533222568,48.34,46.387
1533222568,36.133,44.434
1533222568,30.273,47.852
1533222568,36.133,47.363
1533222568,57.129,45.41
1533222568,65.918,44.434
1533222568,46.387,40.527
1533222568,32.227,39.551
1533222568,39.062,40.527
1533222568,53.223,39.551
1533222568,56.641,37.109
1533222568,44.434,41.016
1533222568,36.621,47.363
1533222568,34.18,43.457
1533222568,49.805,42.48
1533222568,62.012,44.922
1533222568,44.434,44.922
1533222568,24.902,42.48
1533222568,26.855,41.016
1533222568,38.574,39.062
1533222568,50.293,38.574
1533222568,45.41,45.41
1533222568,28.32,45.898
1533222568,18.555,39.551
1533222568,32.227,40.527
1533222568,48.34,38.086
1533222568,36.133,32.715
1533222568,11.719,31.738
1533222568,6.348,31.25
1533222568,16.602,31.25
1533222568,32.715,33.691
1533222568,32.227,34.18
1533222568,13.184,30.762
1533222568,0.977,29.297
1533222568,9.277,28.809
1533222568,29.297,30.273
1533222568,38.574,32.227
1533222568,30.273,36.133
1533222568,18.066,37.598
1533222568,25.391,32.715
1533222568,41.992,29.785
1533222568,37.598,33.691
1533222568,20.996,35.645
1533222568,19.043,30.762
1533222568,32.715,29.785
1533222568,44.922,33.691
1533222568,50.293,34.668
1533222568,43.457,35.645
1533222568,29.785,36.133
1533222568,37.598,37.598
1533222568,50.781,35.156
1533222568,55.664,32.715
1533222568,41.992,34.18
1533222568,13.672,30.273
1533222568,20.02,31.738
1533222568,45.898,36.621
1533222568,50.293,35.645
1533222568,45.898,36.133
1533222568,33.203,39.062
1533222568,33.203,40.039
1533222568,43.945,41.504
1533222568,48.34,39.062
1533222568,43.945,36.133
1533222568,29.785,38.574
1533222568,27.344,39.551
1533222568,42.48,37.109
1533222568,54.199,40.527
1533222568,45.41,39.062
1533222568,21.484,32.715
1533222568,19.531,32.227
1533222568,43.945,33.203
1533222568,56.641,35.645
1533222568,44.434,33.203
1533222568,28.809,29.785
1533222568,20.508,33.691
1533222568,34.668,33.203
1533222568,45.898,29.297
1533222568,26.855,27.344
1533222568,8.789,25.391
1533222568,14.648,28.809
1533222568,33.203,29.785
1533222568,51.758,26.367
1533222568,50.781,30.762
1533222568,28.32,33.691
1533222568,21.973,32.715
1533222568,35.645,32.227
1533222568,57.129,32.227
1533222568,55.176,29.297
1533222568,26.367,28.32
1533222568,8.789,27.344
1533222568,18.555,23.926
1533222568,41.016,26.855
1533222568,42.48,30.762
1533222568,20.996,31.25
1533222568,6.348,29.297
1533222568,14.16,29.297
1533222568,37.598,30.762
1533222568,41.016,27.832
1533222568,22.949,26.367
1533222568,4.883,26.367
1533222568,12.695,27.344
1533222568,31.25,29.297
1533222568,46.387,36.133
1533222568,38.086,36.133
1533222568,10.742,24.902
1533222568,9.766,21.484
1533222568,25.391,26.367
1533222568,37.598,25.391
1533222568,30.762,26.367
1533222568,13.672,31.738
1533222568,3.418,35.645
1533222568,22.461,40.039
1533222568,48.828,41.016
1533222568,42.969,37.109
1533222568,20.508,36.621
1533222568,19.043,36.621
1533222568,31.738,31.25
1533222568,48.828,37.598
1533222568,61.035,47.852
1533222568,47.852,47.852
1533222568,34.668,48.828
1533222568,45.898,45.898
1533222568,67.871,41.992
1533222568,70.801,39.062
1533222568,50.781,38.086
1533222568,39.062,36.621
1533222568,45.898,35.156
1533222568,53.711,33.691
1533222568,51.27,35.156
1533222568,33.203,36.133
1533222568,21.973,34.18
1533222568,28.809,34.18
1533222568,33.691,28.809
1533222568,34.668,28.809
1533222568,24.414,30.762
1533222568,14.16,25.879
1533222568,22.949,25.391
1533222568,36.621,24.902
1533222568,42.969,22.949
1533222568,37.109,24.902
1533222568,19.531,25.391
1533222568,26.367,24.902
1533222568,45.41,26.367
1533222568,56.152,30.273
1533222568,47.363,30.762
1533222568,24.414,29.785
1533222568,22.461,33.203
1533222568,43.945,33.691
1533222568,59.082,31.25
1533222568,45.898,34.18
1533222568,27.832,38.086
1533222568,31.738,38.086
1533222568,52.734,38.086
1533222568,54.199,35.645
1533222568,45.41,39.551
1533222568,31.738,39.551
1533222568,13.184,33.691
1533222568,26.367,32.715
1533222568,49.316,32.227
1533222568,50.293,31.738
1533222568,25.879,35.156
1533222568,17.09,39.551
1533222568,35.156,34.668
1533222568,51.27,33.203
1533222568,41.016,34.18
1533222568,19.531,33.203
1533222568,17.578,35.156
1533222568,35.645,34.668
1533222568,48.828,34.18
1533222568,43.945,36.133
1533222568,27.832,37.109
1533222568,19.043,39.062
1533222568,27.344,36.133
1533222568,48.34,35.156
1533222568,54.688,36.621
1533222568,33.691,38.086
1533222568,19.531,37.598
1533222568,25.879,31.25
1533222568,43.945,27.344
1533222568,48.828,31.25
1533222568,36.133,31.738
1533222568,22.461,28.809
1533222568,30.762,30.273
1533222568,53.223,35.645
1533222568,64.453,38.574
1533222568,52.734,37.109
1533222568,27.832,36.133
1533222568,26.855,35.156
1533222568,55.664,33.203
1533222568,72.266,30.273
1533222568,57.617,25.879
1533222568,35.645,21.484
1533222568,28.809,21.484
1533222568,47.852,19.531
1533222568,62.012,15.137
1533222568,55.176,21.973
1533222568,30.762,22.461
1533222568,16.113,13.672
1533222568,32.227,7.812
1533222568,48.34,7.812
1533222568,45.898,9.277
1533222568,31.25,11.23
1533222568,25.879,14.16
1533222568,41.992,14.16
1533222568,49.316,13.672
1533222568,42.969,13.672
1533222568,32.227,16.602
1533222568,21.484,20.508
1533222568,32.227,19.531
1533222568,48.828,17.578
1533222568,54.688,19.531
1533222568,41.016,22.461
1533222568,22.949,20.508
1533222568,29.297,19.043
1533222568,45.898,21.973
1533222568,44.434,24.902
1533222568,23.926,26.855
1533222568,17.578,25.391
1533222568,21.973,22.461
1533222568,37.109,19.531
1533222568,52.246,20.02
1533222568,36.133,22.949
1533222568,13.184,22.949
1533222568,20.996,20.508
1533222568,46.875,24.902
1533222568,50.781,26.855
1533222568,25.391,20.508
1533222568,4.395,21.484
1533222568,4.883,20.996
1533222568,31.738,19.531
1533222568,48.34,23.438
1533222568,31.25,21.973
1533222568,17.578,23.438
1533222568,20.508,26.367
1533222568,35.156,24.902
1533222568,46.875,23.926
1533222568,37.598,24.902
1533222568,13.672,28.809
1533222568,15.625,27.832
1533222568,25.391,23.926
1533222568,36.133,24.902
1533222568,41.992,26.855
1533222568,18.555,27.832
1533222568,13.184,28.809
1533222568,36.133,31.25
1533222568,51.758,33.203
1533222568,51.27,33.691
1533222568,32.227,31.738
1533222568,16.602,28.32
1533222568,32.227,31.25
1533222569,51.27,30.762
1533222569,49.316,28.809
1533222569,34.668,31.738
1533222569,28.32,32.715
1533222569,37.109,29.297
1533222569,54.688,28.809
1533222569,62.012,29.297
1533222569,44.922,30.762
1533222569,35.156,33.203
1533222569,37.598,27.832
1533222569,48.34,28.809
1533222569,64.453,30.762
1533222569,60.547,29.297
1533222569,44.434,31.738
1533222569,44.922,34.18
1533222569,60.059,34.18
1533222569,61.523,31.25
1533222569,49.805,29.785
1533222569,34.18,34.668
1533222569,33.203,37.109
1533222569,53.223,35.156
1533222569,62.5,33.691
1533222569,53.223,34.18
1533222569,34.18,30.762
1533222569,25.391,28.32
1533222569,46.387,32.227
1533222569,62.988,33.203
1533222569,48.828,34.18
1533222569,25.879,34.668
1533222569,21.484,38.574
1533222569,37.109,39.551
1533222569,49.316,40.039
1533222569,44.434,43.945
1533222569,31.25,40.039
1533222569,32.715,36.133
1533222569,48.828,35.156
1533222569,62.988,34.668
1533222569,64.941,37.109
1533222569,46.875,38.086
1533222569,31.738,42.48
1533222569,43.457,47.363
1533222569,64.941,47.852
1533222569,62.988,43.457
1533222569,35.156,41.016
1533222569,23.926,38.086
1533222569,31.738,35.156
1533222569,46.387,36.133
1533222569,52.734,40.039
1533222569,36.133,40.527
1533222569,25.391,38.086
1533222569,37.109,38.086
1533222569,51.27,42.969
1533222569,53.223,41.992
1533222569,42.48,41.504
1533222569,23.438,42.969
1533222569,31.25,41.992
1533222569,59.57,42.48
1533222569,65.918,41.992
1533222569,45.41,43.945
1533222569,38.574,46.875
1533222569,36.621,42.969
1533222569,41.504,38.574
1533222569,55.664,38.574
1533222569,42.969,36.621
1533222569,21.484,35.645
1533222569,22.461,33.691
1533222569,44.434,36.621
1533222569,58.105,38.086
1533222569,47.363,35.156
1533222569,32.227,38.086
1533222569,27.344,39.551
1533222569,42.969,39.062
1533222569,57.617,36.133
1533222569,50.781,33.691
1533222569,35.645,42.969
1533222569,29.297,42.969
1533222569,49.316,36.621
1533222569,60.547,35.645
1533222569,48.34,31.738
1533222569,30.762,29.297
1533222569,24.414,32.227
1533222569,35.156,34.18
1533222569,45.41,30.273
1533222569,35.645,31.25
1533222569,24.414,37.109
1533222569,13.672,37.109
1533222569,20.508,36.133
1533222569,49.805,39.062
1533222569,52.734,34.18
1533222569,27.344,31.738
1533222569,22.461,34.668
1533222569,29.297,34.668
1533222569,31.738,33.203
1533222569,32.227,33.203
1533222569,32.227,34.18
1533222569,27.832,33.203
1533222569,32.227,32.227
1533222569,54.199,30.273
1533222569,61.035,31.25
1533222569,51.27,32.227
1533222569,33.203,34.668
1533222569,35.645,35.645
1533222569,52.246,32.715
1533222569,54.688,34.668
1533222569,42.48,34.668
1533222569,21.973,32.715
1533222569,21.484,31.25
1533222569,39.551,31.25
1533222569,52.734,29.297
1533222569,41.504,32.715
1533222569,19.043,30.762
1533222569,7.812,23.926
1533222569,20.02,25.879
1533222569,34.668,28.32
1533222569,32.227,30.273
1533222569,22.949,34.668
1533222569,24.414,36.621
1533222569,29.785,36.133
1533222569,38.574,36.621
1533222569,36.621,33.691
1533222569,20.02,34.18
1533222569,23.926,36.133
1533222569,33.203,28.809
1533222569,43.457,30.273
1533222569,52.734,38.574
1533222569,34.18,34.18
1533222569,14.648,32.715
1533222569,26.367,36.133
1533222569,44.922,36.133
1533222569,45.41,37.598
1533222569,29.297,38.574
1533222569,18.066,38.086
1533222569,30.762,34.668
1533222569,47.852,32.227
1533222569,42.969,31.738
1533222569,24.414,33.691
1533222569,11.719,32.715
1533222569,10.254,32.227
1533222569,30.762,36.621
1533222569,43.457,38.086
1533222569,29.297,37.109
1533222569,14.648,34.668
1533222569,22.461,33.691
1533222569,41.016,36.133
1533222569,45.41,36.133
1533222569,27.832,31.25
1533222569,12.695,33.203
1533222569,10.742,32.715
1533222569,27.832,30.762
1533222569,43.457,35.156
1533222569,32.715,32.227
1533222569,13.184,30.273
1533222569,2.93,31.25
1533222569,21.973,32.715
1533222569,40.527,36.133
1533222569,27.832,37.598
1533222569,6.836,33.203
1533222569,18.555,30.273
1533222569,41.016,28.32
1533222569,45.41,27.832
1533222569,35.645,33.203
1533222569,27.832,37.109
1533222569,27.832,38.086
1533222569,30.273,36.133
1533222569,48.34,29.785
1533222569,71.289,25.879
1533222569,46.387,26.855
1533222569,26.367,27.832
1533222569,42.48,28.32
1533222569,52.246,25.391
1533222569,52.734,24.902
1533222569,35.156,25.879
1533222569,22.949,26.367
1533222569,32.227,30.762
1533222569,45.898,31.738
1533222569,47.363,29.297
1533222569,29.297,32.227
1533222569,12.695,31.25
1533222569,15.625,26.367
1533222569,37.109,26.367
1533222569,44.434,27.344
1533222569,23.438,28.32
1533222569,6.836,25.879
1533222569,11.719,23.926
1533222569,28.32,26.367
1533222569,36.621,24.902
1533222569,21.484,26.855
1533222569,7.812,28.809
1533222569,13.672,30.273
1533222569,29.297,29.297
1533222569,49.316,27.832
1533222569,51.27,31.738
1533222569,24.902,32.715
1533222569,18.555,29.785
1533222569,34.668,28.32
1533222569,34.668,33.203
1533222569,20.02,37.109
1533222569,9.766,38.574
1533222569,8.789,37.598
1533222569,16.602,32.227
1533222569,29.297,33.203
1533222569,27.832,37.598
1533222569,16.602,34.18
1533222569,7.324,31.738
1533222569,17.09,30.762
1533222569,37.598,30.762
1533222569,43.945,32.227
1533222569,34.668,32.715
1533222569,22.461,36.133
1533222569,33.691,33.691
1533222569,46.875,27.832
1533222569,40.039,29.785
1533222569,29.785,29.297
1533222569,13.184,29.785
1533222569,19.043,32.227
1533222569,46.387,37.598
1533222569,57.617,40.039
1533222569,42.48,35.645
1533222569,27.832,34.668
1533222569,28.32,37.598
1533222569,48.34,39.062
1533222569,49.805,35.645
1533222569,22.949,38.574
1533222569,21.973,38.086
1533222569,21.484,34.668
1533222569,27.344,34.18
1533222569,45.898,36.133
1533222569,32.227,38.086
1533222569,9.277,33.203
1533222569,15.625,37.598
1533222569,37.598,41.016
1533222569,48.828,37.109
1533222569,44.922,34.18
1533222569,26.855,35.156
1533222569,22.461,34.668
1533222569,38.574,34.668
1533222569,47.852,34.668
1533222569,40.039,33.203
1533222569,25.879,37.598
1533222569,18.066,39.551
1533222569,30.273,34.18
1533222569,50.293,28.809
1533222569,42.969,24.414
1533222569,19.531,24.902
1533222569,17.578,30.273
1533222569,34.18,32.715
1533222569,44.922,32.715
1533222569,38.574,30.273
1533222569,26.855,31.738
1533222569,16.602,35.156
1533222569,29.785,32.227
1533222569,50.293,24.902
1533222569,54.199,26.367
1533222569,39.551,29.297
1533222569,24.414,29.297
1533222569,32.227,27.832
1533222570,50.293,27.832
1533222570,58.105,31.25
1533222570,43.945,31.25
1533222570,27.344,33.691
1533222570,30.762,33.691
1533222570,42.969,32.715
1533222570,49.316,33.691
1533222570,32.715,28.809
1533222570,14.16,25.879
1533222570,21.973,25.391
1533222570,37.598,25.879
1533222570,41.504,25.879
1533222570,30.762,23.926
1533222570,14.648,20.996
1533222570,13.672,18.066
1533222570,36.133,22.949
1533222570,48.828,25.879
1533222570,29.297,23.438
1533222570,13.672,27.344
1533222570,19.043,27.832
1533222570,31.738,28.32
1533222570,45.898,33.203
1533222570,35.156,31.25
1533222570,17.578,29.785
1533222570,22.949,29.785
1533222570,42.969,30.762
1533222570,51.27,29.297
1533222570,52.246,28.32
1533222570,37.598,33.203
1533222570,13.672,30.273
1533222570,30.273,26.367
1533222570,54.688,28.809
1533222570,52.734,33.691
1533222570,28.32,30.762
1533222570,15.137,28.32
1533222570,28.32,33.691
1533222570,45.41,33.203
1533222570,43.945,30.273
1533222570,26.855,32.227
1533222570,18.555,34.18
1533222570,32.715,34.18
1533222570,49.805,30.762
1533222570,41.992,28.32
1533222570,19.043,28.809
1533222570,-1.465,23.926
1533222570,4.395,24.902
1533222570,28.809,27.344
1533222570,41.504,25.391
1533222570,28.809,24.902
1533222570,10.254,24.414
1533222570,16.602,29.297
1533222570,34.668,29.785
1533222570,36.133,28.809
1533222570,27.832,32.715
1533222570,18.066,30.762
1533222570,18.066,32.227
1533222570,41.504,33.203
1533222570,56.152,31.738
1533222570,47.852,36.621
1533222570,35.156,26.367
1533222570,37.109,22.461
1533222570,48.828,29.785
1533222570,53.711,28.809
1533222570,45.898,27.344
1533222570,25.879,28.809
1533222570,26.855,34.18
1533222570,49.805,36.133
1533222570,56.641,36.621
1533222570,47.852,33.691
1533222570,43.945,33.691
1533222570,40.039,37.109
1533222570,45.898,32.715
1533222570,62.988,30.762
1533222570,60.547,32.227
1533222570,40.039,30.762
1533222570,30.273,26.855
1533222570,37.109,30.762
1533222570,56.152,36.621
1533222570,63.477,33.691
1533222570,45.898,28.32
1533222570,29.785,28.32
1533222570,46.875,31.738
1533222570,62.988,28.809
1533222570,60.547,29.785
1533222570,50.293,35.156
1533222570,38.574,36.133
1533222570,48.828,40.039
1533222570,62.988,40.527
1533222570,63.965,37.598
1533222570,45.898,35.156
1533222570,30.762,35.645
1533222570,38.574,37.598
1533222570,53.711,38.086
1533222570,55.176,33.691
1533222570,37.598,26.367
1533222570,17.578,30.273
1533222570,22.949,35.645
1533222570,40.527,33.203
1533222570,50.293,32.227
1533222570,44.922,34.18
1533222570,28.32,34.18
1533222570,28.32,33.203
1533222570,41.016,33.691
1533222570,53.711,32.227
1533222570,40.039,29.785
1533222570,12.207,27.832
1533222570,19.043,31.25
1533222570,35.645,30.273
1533222570,42.969,27.344
1533222570,36.621,28.809
1533222570,14.648,23.438
1533222570,5.859,21.484
1533222570,20.996,26.367
1533222570,34.18,25.391
1533222570,41.504,26.855
1533222570,38.574,29.785
1533222570,22.461,27.344
1533222570,25.391,24.902
1533222570,44.434,28.32
1533222570,38.574,29.785
1533222570,10.254,24.414
1533222570,-2.441,21.973
1533222570,11.719,24.414
1533222570,29.297,25.879
1533222570,32.715,27.832
1533222570,31.738,31.738
1533222570,19.531,21.484
1533222570,14.648,17.578
1533222570,33.691,26.855
1533222570,48.34,27.344
1533222570,32.715,27.832
1533222570,17.09,32.715
1533222570,24.414,33.203
1533222570,33.691,31.25
1533222570,41.504,30.762
1533222570,32.227,30.273
1533222570,13.672,31.738
1533222570,14.648,27.832
1533222570,28.809,24.902
1533222570,34.18,26.855
1533222570,30.762,27.344
1533222570,19.531,27.344
1533222570,23.438,28.32
1533222570,39.551,26.855
1533222570,46.387,24.902
1533222570,42.969,24.902
1533222570,33.691,28.809
1533222570,32.227,30.273
1533222570,42.969,30.273
1533222570,54.199,33.691
1533222570,50.781,33.203
1533222570,36.621,30.273
1533222570,29.785,31.738
1533222570,41.504,34.668
1533222570,56.152,35.156
1533222570,52.734,33.203
1533222570,35.156,31.25
1533222570,24.902,30.273
1533222570,34.18,31.25
1533222570,47.852,31.25
1533222570,50.781,33.691
1533222570,35.156,35.645
1533222570,27.832,37.109
1533222570,45.41,38.086
1533222570,70.801,35.156
1533222570,64.453,32.715
1533222570,27.344,30.762
1533222570,12.207,30.273
1533222570,27.344,28.809
1533222570,52.734,29.785
1533222570,57.129,30.273
1533222570,36.133,26.855
1533222570,18.555,27.344
1533222570,24.902,25.391
1533222570,47.852,26.367
1533222570,66.406,45.41
1533222570,65.43,55.664
1533222570,54.199,53.223
1533222570,53.711,54.199
1533222570,68.848,52.734
1533222570,83.984,52.246
1533222570,77.148,56.152
1533222570,65.918,58.594
1533222570,55.664,51.27
1533222570,62.5,48.828
1533222570,78.125,47.363
1533222570,65.43,42.48
1533222570,43.457,41.504
1533222570,40.039,43.945
1533222570,57.129,47.363
1533222570,59.57,39.062
1533222570,49.805,36.621
1533222570,38.086,38.574
1533222570,30.273,33.203
1533222570,39.551,34.668
1533222570,53.711,38.086
1533222570,45.41,36.133
1533222570,23.926,34.668
1533222570,19.531,33.203
1533222570,33.691,31.25
1533222570,48.34,35.645
1533222570,44.434,37.109
1533222570,24.414,37.109
1533222570,17.578,35.645
1533222570,28.32,35.645
1533222570,40.039,35.156
1533222570,40.039,34.668
1533222570,30.273,34.668
1533222570,18.066,35.156
1533222570,20.02,36.621
1533222570,40.527,32.227
1533222570,42.969,27.832
1533222570,29.785,34.668
1533222570,17.09,35.156
1533222570,19.043,30.762
1533222570,42.48,31.738
1533222570,56.152,28.32
1533222570,41.504,25.391
1533222570,25.391,30.273
1533222570,30.273,32.227
1533222570,45.41,29.785
1533222570,50.781,27.832
1533222570,37.598,26.855
1533222570,19.043,25.879
1533222570,12.695,24.902
1533222570,26.367,24.902
1533222570,38.086,26.855
1533222570,31.738,28.809
1533222570,20.508,24.902
1533222570,17.09,26.367
1533222570,35.156,30.762
1533222570,41.992,31.25
1533222570,31.25,35.645
1533222570,21.484,40.039
1533222570,11.719,35.645
1533222570,22.461,36.621
1533222570,43.457,38.086
1533222570,34.18,32.715
1533222570,19.531,32.227
1533222570,23.926,34.668
1533222570,39.062,33.203
1533222570,49.316,31.25
1533222570,46.875,29.785
1533222570,36.133,29.785
1533222570,22.949,29.297
1533222570,33.203,26.855
1533222570,61.035,31.25
1533222570,63.965,32.227
1533222570,40.527,35.645
1533222570,27.344,36.133
1533222570,27.344,31.25
1533222570,34.668,34.18
1533222570,40.039,35.645
1533222570,26.855,34.668
1533222570,12.207,34.668
1533222570,21.484,33.691
1533222571,37.109,32.227
1533222571,41.016,35.156
1533222571,29.785,36.621
1533222571,11.719,38.574
1533222571,16.602,39.551
1533222571,33.691,31.25
1533222571,40.527,30.273
1533222571,31.738,33.691
1533222571,12.695,33.691
1533222571,15.625,33.203
1533222571,34.668,33.203
1533222571,41.992,32.715
1533222571,27.832,33.203
1533222571,8.301,35.156
1533222571,12.207,38.086
1533222571,39.551,39.062
1533222571,50.781,36.133
1533222571,39.551,37.598
1533222571,29.297,36.621
1533222571,25.391,32.715
1533222571,40.039,35.156
1533222571,54.688,36.133
1533222571,50.293,34.18
1533222571,28.32,35.645
1533222571,15.625,33.691
1533222571,21.484,30.762
1533222571,38.086,34.668
1533222571,41.992,38.086
1533222571,23.438,37.598
1533222571,12.207,35.156
1533222571,19.531,32.227
1533222571,43.945,36.133
1533222571,60.059,39.551
1533222571,40.527,36.133
1533222571,24.902,36.133
1533222571,29.785,35.645
1533222571,37.109,29.785
1533222571,44.434,30.273
1533222571,35.645,32.715
1533222571,21.484,30.273
1533222571,22.949,32.227
1533222571,46.387,34.668
1533222571,54.688,36.133
1533222571,36.133,37.109
1533222571,26.367,33.691
1533222571,25.879,29.785
1533222571,42.48,26.367
1533222571,52.246,23.438
1533222571,32.227,25.391
1533222571,15.625,29.785
1533222571,14.16,28.809
1533222571,30.273,29.785
1533222571,38.574,28.809
1533222571,29.785,26.367
1533222571,19.531,29.297
1533222571,8.301,30.273
1533222571,21.484,24.902
1533222571,48.828,30.273
1533222571,41.992,33.691
1533222571,10.254,28.809
1533222571,4.883,29.297
1533222571,25.391,29.785
1533222571,41.504,30.273
1533222571,33.691,30.762
1533222571,10.742,29.297
1533222571,8.301,29.297
1533222571,33.203,34.668
1533222571,41.016,35.156
1533222571,20.996,32.715
1533222571,4.395,29.785
1533222571,-0.977,28.32
1533222571,6.836,26.367
1533222571,19.531,31.738
1533222571,19.043,33.691
1533222571,-7.324,28.809
1533222571,-12.695,31.738
1533222571,12.207,30.273
1533222571,6.836,29.785
1533222571,-15.137,25.879
1533222571,-26.855,25.879
1533222571,-48.828,29.785
1533222571,-52.734,27.344
1533222571,-38.086,30.273
1533222571,-43.945,29.297
1533222571,-65.918,26.855
1533222571,-83.496,28.809
1533222571,-91.797,25.879
1533222571,-76.66,23.926
1533222571,-64.941,27.832
1533222571,-80.078,27.344
1533222571,-107.91,32.715
1533222571,-117.676,39.062
1533222571,-91.309,34.668
1533222571,-91.797,32.227
1533222571,-119.141,33.691
1533222571,-142.578,33.203
1533222571,-144.531,33.691
1533222571,-129.883,34.18
1533222571,-109.863,38.574
1533222571,-119.141,45.41
1533222571,-143.555,44.922
1533222571,-137.695,43.457
1533222571,-114.258,45.898
1533222571,-100.098,46.387
1533222571,-100.098,49.316
1533222571,-107.422,54.199
1533222571,-101.074,51.27
1533222571,-82.031,54.688
1533222571,-55.176,58.105
1533222571,-46.387,60.059
1533222571,-57.617,57.617
1533222571,-56.641,54.199
1533222571,-54.688,55.664
1533222571,-26.367,55.664
1533222571,-4.395,55.664
1533222571,-18.066,54.199
1533222571,-12.695,52.246
1533222571,1.465,47.363
1533222571,13.184,45.41
1533222571,20.996,44.434
1533222571,15.137,48.34
1533222571,18.066,48.828
1533222571,37.598,45.41
1533222571,62.012,43.945
1533222571,65.918,39.062
1533222571,56.152,37.109
1533222571,51.758,37.598
1533222571,62.012,39.062
1533222571,84.961,40.039
1533222571,103.027,43.457
1533222571,96.191,41.504
1533222571,84.961,40.527
1533222571,97.168,44.922
1533222571,119.629,41.016
1533222571,127.93,38.574
1533222571,118.652,42.969
1533222571,102.051,41.016
1533222571,97.656,39.551
1533222571,109.863,34.668
1533222571,123.047,28.809
1533222571,114.746,31.25
1533222571,94.238,34.18
1533222571,89.355,31.25
1533222571,104.004,32.715
1533222571,116.699,33.691
1533222571,114.746,36.621
1533222571,102.051,37.109
1533222571,98.145,32.715
1533222571,112.305,34.18
1533222571,122.07,35.645
1533222571,116.699,34.18
1533222571,97.656,35.645
1533222571,81.543,37.598
1533222571,99.609,38.574
1533222571,118.164,34.668
1533222571,109.375,34.668
1533222571,87.402,35.156
1533222571,76.66,35.156
1533222571,85.449,35.156
1533222571,98.633,28.32
1533222571,108.398,32.715
1533222571,99.609,38.574
1533222571,85.938,36.133
1533222571,85.938,34.668
1533222571,99.609,35.645
1533222571,96.191,35.645
1533222571,83.008,35.645
1533222571,68.359,34.18
1533222571,67.383,30.762
1533222571,88.379,27.832
1533222571,92.773,28.809
1533222571,80.566,32.715
1533222571,66.406,38.086
1533222571,62.5,38.086
1533222571,79.59,35.156
1533222571,95.215,33.203
1533222571,92.285,29.785
1533222571,71.289,31.25
1533222571,70.801,35.645
1533222571,84.473,36.133
1533222571,82.52,35.156
1533222571,73.73,35.645
1533222571,59.082,39.062
1533222571,42.48,37.109
1533222571,50.293,32.227
1533222571,70.312,33.691
1533222571,63.477,33.691
1533222571,42.48,32.715
1533222571,37.598,33.691
1533222571,56.641,34.668
1533222571,77.637,33.203
1533222571,76.172,32.715
1533222571,58.105,33.691
1533222571,46.875,36.133
1533222571,56.152,34.668
1533222571,75.684,31.738
1533222571,80.566,36.621
1533222571,65.918,39.551
1533222571,55.664,41.504
1533222571,63.965,42.48
1533222571,81.543,46.875
1533222571,104.492,56.152
1533222571,97.168,56.152
1533222571,49.805,48.828
1533222571,34.18,44.922
1533222571,57.617,40.527
1533222571,62.988,41.504
1533222571,50.293,42.969
1533222571,34.18,42.969
1533222571,42.48,44.922
1533222571,59.57,40.039
1533222571,64.941,37.109
1533222571,55.664,32.715
1533222571,34.668,33.203
1533222571,35.156,35.156
1533222571,54.688,32.227
1533222571,71.289,34.18
1533222571,60.547,36.133
1533222571,37.109,33.691
1533222571,44.434,39.062
1533222571,63.477,40.039
1533222571,70.312,33.691
1533222571,66.895,33.691
1533222571,47.363,30.762
1533222571,37.598,30.273
1533222571,52.734,31.25
1533222571,62.988,30.762
1533222571,48.828,29.785
1533222571,33.203,32.715
1533222571,26.855,32.715
1533222571,33.203,30.273
1533222571,45.898,32.227
1533222571,44.434,32.715
1533222571,23.438,32.715
1533222571,20.02,32.715
1533222571,39.551,35.645
1533222571,50.781,34.18
1533222571,43.457,29.785
1533222571,25.391,25.391
1533222571,22.949,30.762
1533222571,29.297,32.715
1533222571,41.504,24.414
1533222571,46.387,24.414
1533222571,37.109,28.809
1533222571,22.461,27.344
1533222571,25.879,25.879
1533222571,44.434,30.762
1533222571,44.434,31.738
1533222571,31.738,27.832
1533222571,27.344,27.344
1533222571,28.32,30.273
1533222571,36.621,29.297
1533222571,46.875,31.25
1533222571,40.527,32.715
1533222571,28.32,26.367
1533222571,25.879,31.25
1533222572,43.945,31.25
1533222572,57.617,28.809
1533222572,40.527,31.25
1533222572,23.926,33.691
1533222572,28.32,35.645
1533222572,42.969,28.32
1533222572,46.387,26.367
1533222572,40.039,30.273
1533222572,16.113,28.32
1533222572,7.812,29.297
1533222572,37.109,33.691
1533222572,62.012,34.668
1533222572,56.641,34.668
1533222572,39.062,32.715
1533222572,30.273,28.32
1533222572,39.062,28.809
1533222572,49.805,25.391
1533222572,41.016,24.902
1533222572,27.832,28.809
1533222572,19.043,25.391
1533222572,25.879,29.785
1533222572,45.41,31.738
1533222572,39.551,24.414
1533222572,26.367,24.414
1533222572,19.531,25.391
1533222572,34.668,25.391
1533222572,50.781,26.367
1533222572,54.199,26.367
1533222572,48.34,28.32
1533222572,20.508,25.391
1533222572,21.484,25.391
1533222572,44.434,26.367
1533222572,50.293,24.902
1533222572,29.297,24.414
1533222572,15.137,22.949
1533222572,27.344,22.949
1533222572,45.41,23.438
1533222572,49.805,21.484
1533222572,42.969,18.066
1533222572,28.809,16.113
1533222572,34.18,19.531
1533222572,56.641,23.926
1533222572,60.547,27.344
1533222572,46.875,25.391
1533222572,30.762,23.926
1533222572,27.344,27.344
1533222572,40.039,25.391
1533222572,56.641,24.902
1533222572,60.547,28.32
1533222572,45.41,31.738
1533222572,36.621,31.738
1533222572,51.27,29.297
1533222572,66.406,28.809
1533222572,52.734,25.391
1533222572,35.156,26.367
1533222572,34.668,30.762
1533222572,48.828,33.203
1533222572,62.012,32.715
1533222572,52.734,30.273
1533222572,36.133,27.832
1533222572,32.715,26.855
1533222572,43.457,27.344
1533222572,51.758,27.832
1533222572,46.387,27.832
1533222572,31.25,25.391
1533222572,19.531,23.438
1533222572,31.738,26.855
1533222572,55.176,26.367
1533222572,66.895,28.809
1533222572,71.777,39.551
1533222572,49.805,41.504
1533222572,37.109,33.203
1533222572,56.641,26.367
1533222572,74.219,21.973
1533222572,62.5,19.043
1533222572,46.875,21.484
1533222572,59.082,29.297
1533222572,77.637,25.879
1533222572,85.449,15.137
1533222572,58.594,17.09
1533222572,43.457,22.949
1533222572,52.734,20.508
1533222572,73.73,27.344
1533222572,82.031,32.715
1533222572,77.637,29.297
1533222572,71.777,35.156
1533222572,64.453,34.18
1533222572,74.707,30.273
1533222572,81.055,29.785
1533222572,66.406,27.832
1533222572,51.758,31.25
1533222572,45.898,35.156
1533222572,55.176,36.621
1533222572,69.824,34.18
1533222572,67.383,30.762
1533222572,46.387,32.227
1533222572,37.598,34.668
1533222572,54.688,35.156
1533222572,68.359,35.156
1533222572,60.547,40.039
1533222572,47.852,41.504
1533222572,36.133,38.574
1533222572,43.457,35.156
1533222572,61.523,30.273
1533222572,58.105,26.367
1533222572,37.598,24.902
1533222572,24.414,28.32
1533222572,39.551,26.367
1533222572,55.664,22.461
1533222572,48.828,20.996
1533222572,40.039,21.484
1533222572,30.273,25.879
1533222572,32.715,26.367
1533222572,47.852,23.926
1533222572,53.223,24.902
1533222572,45.898,28.32
1533222572,36.621,33.203
1533222572,51.758,36.133
1533222572,64.941,30.762
1533222572,37.109,26.367
1533222572,13.672,27.832
1533222572,3.906,30.762
1533222572,4.883,27.344
1533222572,32.715,27.832
1533222572,44.922,30.273
1533222572,34.668,28.809
1533222572,28.809,25.391
1533222572,28.32,27.832
1533222572,53.711,30.273
1533222572,63.965,24.414
1533222572,51.27,26.367
1533222572,39.062,30.762
1533222572,33.691,29.785
1533222572,41.992,27.832
1533222572,58.105,28.809
1533222572,53.711,28.32
1533222572,38.574,25.879
1533222572,36.133,29.785
1533222572,43.945,33.691
1533222572,55.176,33.203
1533222572,53.711,28.809
1533222572,33.691,26.367
1533222572,22.949,29.297
1533222572,35.156,27.832
1533222572,53.711,26.367
1533222572,53.223,31.738
1533222572,33.691,35.645
1533222572,25.391,35.156
1533222572,42.969,37.598
1533222572,61.035,39.062
1533222572,61.035,36.621
1533222572,48.828,30.762
1533222572,41.992,35.645
1533222572,48.34,41.992
1533222572,66.406,44.434
1533222572,67.871,46.875
1533222572,45.898,40.039
1533222572,32.227,34.18
1533222572,42.969,38.574
1533222572,54.199,38.086
1533222572,53.711,33.691
1533222572,45.41,38.086
1533222572,27.344,37.598
1533222572,32.715,36.133
1533222572,48.828,39.062
1533222572,46.387,37.598
1533222572,35.645,32.227
1533222572,16.113,34.18
1533222572,9.277,38.574
1533222572,29.785,34.18
1533222572,45.898,32.227
1533222572,47.363,34.668
1533222572,36.133,38.574
1533222572,30.762,39.551
1533222572,41.016,37.598
1533222572,54.688,40.039
1533222572,45.898,41.992
1533222572,30.762,45.41
1533222572,32.227,46.875
1533222572,39.062,43.457
1533222572,56.641,44.922
1533222572,53.223,42.969
1533222572,29.785,39.062
1533222572,22.949,41.504
1533222572,30.762,41.504
1533222572,45.898,37.598
1533222572,51.27,39.062
1533222572,32.227,41.504
1533222572,27.344,39.551
1533222572,35.156,36.133
1533222572,44.434,39.062
1533222572,41.504,41.016
1533222572,25.391,43.457
1533222572,20.02,44.434
1533222572,29.785,42.969
1533222572,44.434,41.992
1533222572,44.434,43.945
1533222572,35.156,45.898
1533222572,17.578,44.922
1533222572,13.672,42.969
1533222572,31.738,43.457
1533222572,39.062,40.527
1533222572,33.203,39.062
1533222572,26.367,40.527
1533222572,23.926,40.039
1533222572,36.133,42.48
1533222572,46.387,45.898
1533222572,39.062,47.852
1533222572,28.809,46.387
1533222572,27.344,45.41
1533222572,38.086,46.387
1533222572,49.316,40.527
1533222572,41.016,38.574
1533222572,19.531,40.527
1533222572,22.949,38.574
1533222572,41.016,39.551
1533222572,48.828,45.41
1533222572,37.598,43.945
1533222572,15.137,40.527
1533222572,11.23,45.41
1533222572,33.203,45.41
1533222572,42.48,39.551
1533222572,34.18,42.48
1533222572,25.879,50.293
1533222572,20.02,49.805
1533222572,31.25,44.434
1533222572,46.875,44.434
1533222572,51.758,48.828
1533222572,39.062,52.246
1533222572,36.621,53.223
1533222572,46.387,50.781
1533222572,60.547,45.898
1533222572,65.918,42.969
1533222572,50.781,46.387
1533222572,43.945,44.434
1533222572,45.898,36.133
1533222572,55.664,41.504
1533222572,56.152,43.945
1533222572,42.48,42.48
1533222572,26.367,39.062
1533222572,24.414,34.668
1533222572,48.828,35.645
1533222572,58.594,34.18
1533222572,39.062,32.227
1533222572,32.227,35.156
1533222572,38.574,37.598
1533222572,51.27,36.133
1533222572,60.547,36.621
1533222572,51.758,41.504
1533222572,41.504,41.016
1533222572,39.062,38.574
1533222572,61.035,40.527
1533222572,68.848,38.086
1533222572,45.41,35.645
1533222572,29.297,40.527
1533222572,27.344,45.898
1533222573,38.086,44.922
1533222573,52.246,42.48
1533222573,43.457,41.016
1533222573,17.09,34.668
1533222573,15.137,31.738
1533222573,27.832,35.156
1533222573,32.227,33.691
1533222573,34.668,34.18
1533222573,24.902,30.273
1533222573,16.602,32.227
1533222573,31.738,36.133
1533222573,51.758,38.086
1533222573,50.781,28.32
1533222573,40.527,-0.977
1533222573,38.574,-14.648
1533222573,51.758,-16.113
1533222573,63.965,-15.625
1533222573,62.988,-12.695
1533222573,38.086,-12.207
1533222573,19.043,-13.184
1533222573,39.551,-6.348
1533222573,60.547,-1.465
1533222573,65.918,2.441
1533222573,53.711,5.371
1533222573,30.762,5.859
1533222573,37.109,6.836
1533222573,63.477,8.301
1533222573,69.824,13.672
1533222573,48.828,12.207
1533222573,36.621,13.672
1533222573,41.504,20.508
1533222573,55.664,20.02
1533222573,66.895,21.973
1533222573,54.199,26.855
1533222573,33.691,31.25
1533222573,36.621,28.32
1533222573,53.223,21.973
1533222573,60.547,26.367
1533222573,59.57,33.203
1533222573,41.504,30.273
1533222573,31.738,23.926
1533222573,52.246,26.855
1533222573,71.289,31.25
1533222573,64.941,31.25
1533222573,45.41,30.273
1533222573,41.016,30.762
1533222573,47.363,24.902
1533222573,56.152,23.438
1533222573,53.223,28.809
1533222573,34.668,30.762
1533222573,24.902,33.203
1533222573,47.363,35.645
1533222573,55.176,29.785
1533222573,44.922,25.879
1533222573,42.969,32.715
1533222573,26.855,35.645
1533222573,28.809,35.156
1533222573,56.152,33.691
1533222573,52.246,34.18
1533222573,28.32,38.574
1533222573,14.648,37.109
1533222573,32.227,37.598
1533222573,53.223,38.086
1533222573,48.828,33.691
1533222573,35.156,37.598
1533222573,21.973,39.551
1533222573,21.973,34.668
1533222573,34.668,33.203
1533222573,43.945,35.645
1533222573,31.25,35.645
1533222573,10.254,34.18
1533222573,12.695,37.109
1533222573,27.832,37.109
1533222573,38.086,39.062
1533222573,32.715,41.504
1533222573,14.648,38.086
1533222573,11.719,40.527
1533222573,28.32,39.551
1533222573,50.293,39.551
1533222573,46.875,40.527
1533222573,26.367,43.457
1533222573,27.344,45.41
1533222573,41.016,41.016
1533222573,51.758,42.48
1533222573,47.852,43.945
1533222573,36.621,43.945
1533222573,28.809,44.922
1533222573,35.156,44.922
1533222573,56.152,46.387
1533222573,54.199,46.875
1533222573,30.273,46.387
1533222573,27.344,46.875
1533222573,38.574,45.898
1533222573,50.781,43.457
1533222573,57.617,45.41
1533222573,43.945,48.34
1533222573,30.273,44.434
1533222573,29.785,43.457
1533222573,47.852,48.828
1533222573,58.105,49.316
1533222573,39.551,48.34
1533222573,32.715,51.758
1533222573,38.086,45.898
1533222573,54.688,43.457
1533222573,68.359,53.711
1533222573,53.711,51.758
1533222573,38.574,44.434
1533222573,41.504,47.363
1533222573,54.199,47.852
1533222573,62.5,41.992
1533222573,44.434,41.504
1533222573,24.414,35.156
1533222573,44.434,25.879
1533222573,63.477,31.25
1533222573,31.25,33.691
1533222573,0.488,34.18
1533222573,-11.719,35.645
1533222573,-15.137,36.621
1533222573,-12.207,40.039
1533222573,-7.324,41.992
1533222573,-11.23,36.621
1533222573,-30.273,36.621
1533222573,-32.715,51.27
1533222573,-20.02,47.852
1533222573,-10.254,45.41
1533222573,-5.859,49.316
1533222573,-12.695,43.457
1533222573,-6.836,44.434
1533222573,10.742,41.504
1533222573,22.461,38.086
1533222573,9.277,36.621
1533222573,-9.766,34.18
1533222573,-11.23,33.691
1533222573,9.277,32.227
1533222573,32.227,31.738
1533222573,31.25,36.133
1533222573,20.02,37.109
1533222573,13.184,30.273
1533222573,20.996,31.738
1533222573,42.48,35.156
1533222573,50.293,32.715
1533222573,33.203,34.18
1533222573,29.297,36.621
1533222573,44.922,35.156
1533222573,67.383,34.668
1533222573,73.242,36.621
1533222573,60.059,34.18
1533222573,45.898,33.203
1533222573,50.781,34.668
1533222573,69.336,29.785
1533222573,66.895,30.273
1533222573,38.574,33.203
1533222573,27.832,33.691
1533222573,22.461,30.762
1533222573,32.715,31.25
1533222573,46.387,29.297
1533222573,21.973,23.926
1533222573,0.488,32.227
1533222573,9.766,36.621
1533222573,21.973,36.621
1533222573,28.32,37.109
1533222573,28.32,31.738
1533222573,9.766,31.25
1533222573,10.254,34.668
1533222573,23.438,35.645
1533222573,30.273,33.691
1533222573,26.367,26.367
1533222573,17.09,24.902
1533222573,20.996,23.926
1533222573,24.902,21.484
1533222573,29.297,20.508
1533222573,32.715,26.855
1533222573,22.461,32.715
1533222573,15.137,29.785
1533222573,27.832,30.273
1533222573,45.898,28.809
1533222573,49.805,27.832
1533222573,41.992,32.715
1533222573,34.18,35.645
1533222573,58.594,34.18
1533222573,83.496,31.738
1533222573,64.941,38.574
1533222573,45.41,39.062
1533222573,40.527,33.691
1533222573,40.527,40.527
1533222573,58.105,40.039
1533222573,66.895,37.109
1533222573,49.805,38.086
1533222573,36.621,33.691
1533222573,54.199,34.18
1533222573,68.848,37.598
1533222573,68.359,33.691
1533222573,58.594,25.879
1533222573,34.668,29.297
1533222573,34.18,38.574
1533222573,55.176,34.18
1533222573,64.453,36.133
1533222573,51.27,35.645
1533222573,42.969,33.691
1533222573,49.316,35.156
1533222573,58.105,33.691
1533222573,63.477,31.738
1533222573,54.199,33.691
1533222573,37.109,38.574
1533222573,40.527,34.18
1533222573,58.105,28.32
1533222573,63.477,26.367
1533222573,51.758,30.762
1533222573,40.039,32.715
1533222573,41.016,27.344
1533222573,47.852,27.832
1533222573,50.293,31.25
1533222573,47.852,28.32
1533222573,38.574,31.25
1533222573,36.133,37.109
1533222573,47.852,35.156
1533222573,62.5,31.25
1533222573,68.848,32.715
1533222573,42.969,36.621
1533222573,28.32,34.18
1533222573,42.969,30.762
1533222573,56.152,31.25
1533222573,62.012,33.691
1533222573,55.176,36.133
1533222573,35.156,38.574
1533222573,29.297,39.062
1533222573,39.062,41.016
1533222573,52.734,46.387
1533222573,38.574,42.969
1533222573,17.578,37.598
1533222573,38.086,39.062
1533222573,56.152,37.598
1533222573,48.828,36.621
1533222573,40.527,34.668
1533222573,34.668,32.227
1533222573,36.133,33.691
1533222573,51.758,32.715
1533222573,60.059,32.227
1533222573,41.504,33.203
1533222573,29.297,34.668
1533222573,28.32,32.227
1533222573,33.691,26.855
1533222573,41.016,27.344
1533222573,33.203,28.32
1533222573,24.414,27.344
1533222573,23.926,32.715
1533222573,38.574,35.156
1533222573,51.27,31.738
1533222573,39.062,35.156
1533222573,25.879,36.133
1533222573,29.297,36.621
1533222573,36.133,38.086
1533222573,40.039,34.668
1533222573,39.062,35.645
1533222573,24.902,37.109
1533222573,22.461,45.898
1533222574,54.688,50.781
1533222574,57.129,39.062
1533222574,23.926,30.762
1533222574,6.348,30.273
1533222574,6.836,33.203
1533222574,20.02,30.273
1533222574,24.902,26.367
1533222574,23.926,26.367
1533222574,8.301,26.367
1533222574,-1.953,30.273
1533222574,16.113,30.273
1533222574,30.762,32.227
1533222574,38.574,34.18
1533222574,36.133,36.621
1533222574,15.137,37.109
1533222574,20.508,37.109
1533222574,52.246,37.598
1533222574,59.082,39.551
1533222574,46.387,43.457
1533222574,30.273,41.504
1533222574,35.156,40.527
1533222574,45.41,41.504
1533222574,41.992,34.668
1533222574,38.574,36.133
1533222574,24.414,41.016
1533222574,14.16,35.645
1533222574,22.949,31.738
1533222574,32.715,31.25
1533222574,30.273,32.227
1533222574,17.09,36.133
1533222574,10.254,33.691
1533222574,21.973,27.344
1533222574,42.969,28.32
1533222574,41.504,29.297
1533222574,27.344,35.645
1533222574,29.785,35.156
1533222574,35.156,28.32
1533222574,54.688,36.621
1533222574,58.105,36.133
1533222574,40.527,27.832
1533222574,37.109,24.414
1533222574,48.828,24.902
1533222574,53.711,26.367
1533222574,50.781,26.855
1533222574,56.152,36.621
1533222574,61.523,40.527
1533222574,43.457,29.297
1533222574,31.25,20.02
1533222574,16.113,18.555
1533222574,-4.883,20.508
1533222574,-20.02,14.16
1533222574,-14.16,11.23
1533222574,1.953,13.672
1533222574,1.953,10.742
1533222574,-4.395,6.348
1533222574,-12.207,5.371
1533222574,-12.695,2.93
1533222574,4.395,5.859
1533222574,20.508,11.23
1533222574,17.09,9.277
1533222574,4.883,11.23
1533222574,2.441,14.16
1533222574,27.344,11.23
1533222574,43.457,11.23
1533222574,29.297,14.16
1533222574,10.742,16.113
1533222574,13.184,18.066
1533222574,33.691,17.09
1533222574,47.852,16.602
1533222574,37.598,18.066
1533222574,15.137,19.043
1533222574,17.09,20.508
1533222574,38.086,22.949
1533222574,51.27,20.508
1533222574,48.34,25.391
1533222574,28.32,32.227
1533222574,19.043,29.297
1533222574,34.668,26.367
1533222574,47.363,27.344
1533222574,39.551,30.762
1533222574,24.902,29.785
1533222574,21.484,26.367
1533222574,23.926,25.391
1533222574,31.738,24.414
1533222574,28.809,25.879
1533222574,12.695,26.367
1533222574,7.324,28.809
1533222574,13.672,31.738
1533222574,27.344,24.902
1533222574,30.273,24.902
1533222574,15.625,26.855
1533222574,7.324,27.832
1533222574,24.414,32.227
1533222574,40.039,22.461
1533222574,28.32,19.531
1533222574,14.16,24.414
1533222574,2.93,24.902
1533222574,1.953,25.391
1533222574,15.625,27.344
1533222574,31.25,32.227
1533222574,17.09,28.32
1533222574,5.371,27.832
1533222574,21.484,33.691
1533222574,23.926,29.297
1533222574,19.531,27.832
1533222574,12.207,33.691
1533222574,6.348,31.738
1533222574,7.812,24.414
1533222574,26.367,25.391
1533222574,45.898,27.832
1533222574,35.645,27.832
1533222574,22.461,35.156
1533222574,18.066,37.109
1533222574,24.414,29.297
1533222574,36.621,31.25
1533222574,45.41,39.062
1533222574,24.414,35.645
1533222574,5.371,31.25
1533222574,21.484,32.227
1533222574,36.133,32.227
1533222574,32.227,29.297
1533222574,9.277,29.297
1533222574,3.418,29.785
1533222574,23.926,30.273
1533222574,33.691,32.715
1533222574,33.203,31.738
1533222574,18.555,26.367
1533222574,2.93,25.879
1533222574,9.766,29.297
1533222574,34.18,28.32
1533222574,41.016,29.785
1533222574,22.949,30.273
1533222574,17.09,28.809
1533222574,35.156,31.738
1533222574,52.246,30.273
1533222574,44.434,29.297
1533222574,24.414,26.367
1533222574,14.16,23.926
1533222574,22.461,30.762
1533222574,42.969,31.25
1533222574,47.363,26.855
1533222574,31.738,28.809
1533222574,22.461,27.832
1533222574,21.484,25.879
1533222574,41.016,26.367
1533222574,51.27,25.879
1533222574,35.645,25.391
1533222574,20.02,28.809
1533222574,28.32,31.738
1533222574,48.828,28.809
1533222574,51.27,24.902
1533222574,43.457,26.855
1533222574,27.344,29.785
1533222574,21.973,26.855
1533222574,40.039,28.809
1533222574,47.363,29.785
1533222574,39.062,26.855
1533222574,29.297,26.367
1533222574,29.297,25.879
1533222574,52.734,25.391
1533222574,61.523,21.973
1533222574,50.293,23.926
1533222574,34.18,28.809
1533222574,35.645,26.855
1533222574,49.316,26.855
1533222574,46.875,23.926
1533222574,40.527,20.02
1533222574,30.273,21.973
1533222574,20.508,27.832
1533222574,25.879,32.715
1533222574,41.504,29.785
1533222574,41.992,27.344
1533222574,27.832,30.273
1533222574,14.648,26.367
1533222574,27.344,21.484
1533222574,43.945,22.949
1533222574,46.387,24.414
1533222574,40.527,20.508
1533222574,23.926,20.508
1533222574,22.461,29.785
1533222574,42.48,30.762
1533222574,44.434,26.367
1533222574,41.016,28.809
1533222574,38.574,32.227
1533222574,43.945,29.297
1533222574,66.406,30.273
1533222574,67.383,32.715
1533222574,47.852,31.738
1533222574,35.645,27.832
1533222574,38.574,27.344
1533222574,55.664,37.109
1533222574,76.172,39.062
1533222574,47.363,37.109
1533222574,5.371,34.18
1533222574,8.789,32.715
1533222574,36.621,35.645
1533222574,48.828,28.32
1533222574,45.41,27.344
1533222574,31.25,26.855
1533222574,30.273,25.879
1533222574,52.734,33.203
1533222574,66.406,32.715
1533222574,50.293,33.203
1533222574,20.02,29.785
1533222574,22.949,26.855
1533222574,37.109,26.367
1533222574,45.898,22.949
1533222574,44.434,29.297
1533222574,28.32,28.32
1533222574,19.043,23.438
1533222574,33.691,27.344
1533222574,47.852,27.832
1533222574,39.062,26.367
1533222574,31.738,28.32
1533222574,24.902,25.879
1533222574,33.691,21.973
1533222574,48.34,25.391
1533222574,48.34,30.273
1533222574,43.945,27.832
1533222574,27.344,30.762
1533222574,26.367,31.25
1533222574,50.781,26.855
1533222574,55.176,29.785
1533222574,31.738,30.762
1533222574,20.508,28.809
1533222574,39.551,29.297
1533222574,57.617,30.273
1533222574,57.129,26.367
1533222574,39.551,24.414
1533222574,21.484,27.344
1533222574,34.18,28.809
1533222574,57.617,29.297
1533222574,51.27,22.461
1533222574,42.969,22.949
1533222574,28.809,30.762
1533222574,21.973,31.738
1533222574,38.086,28.32
1533222574,48.34,23.438
1533222574,39.062,26.855
1533222574,23.438,28.32
1533222574,24.414,28.32
1533222574,42.969,29.297
1533222574,53.223,27.344
1533222574,37.109,27.344
1533222574,21.973,25.391
1533222574,20.02,27.832
1533222574,30.762,34.18
1533222574,46.387,30.762
1533222574,39.062,29.297
1533222574,24.902,25.879
1533222574,19.043,27.344
1533222574,23.926,28.809
1533222574,42.969,28.809
1533222574,40.039,32.715
1533222574,20.996,33.203
1533222574,8.301,28.809
1533222575,19.043,27.832
1533222575,38.086,30.762
1533222575,39.062,29.785
1533222575,22.461,30.273
1533222575,14.16,33.691
1533222575,21.484,32.227
1533222575,28.809,28.32
1533222575,37.598,27.344
1533222575,24.902,26.367
1533222575,-1.953,23.926
1533222575,10.254,26.367
1533222575,27.344,29.297
1533222575,35.156,27.344
1533222575,26.367,22.949
1533222575,10.254,29.297
1533222575,7.324,32.715
1533222575,25.391,28.32
1533222575,39.062,30.762
1533222575,23.926,30.273
1533222575,16.602,30.762
1533222575,15.137,32.227
1533222575,31.25,35.156
1533222575,40.527,30.762
1533222575,23.926,30.762
1533222575,10.254,33.203
1533222575,7.812,35.645
1533222575,24.414,33.691
1533222575,43.457,29.785
1533222575,45.898,36.133
1533222575,23.438,23.438
1533222575,34.668,14.16
1533222575,55.664,31.25
1533222575,42.969,39.551
1533222575,33.203,36.133
1533222575,17.578,33.691
1533222575,5.371,32.227
1533222575,12.695,34.18
1533222575,30.762,35.645
1533222575,11.23,32.227
1533222575,-14.648,32.715
1533222575,-20.02,32.715
1533222575,-7.324,32.715
1533222575,13.672,30.273
1533222575,8.789,27.344
1533222575,-1.465,33.691
1533222575,-4.395,32.715
1533222575,6.348,25.879
1533222575,29.297,26.855
1533222575,30.762,27.832
1533222575,8.789,29.297
1533222575,0.977,27.344
1533222575,3.906,24.414
1533222575,10.254,29.785
1533222575,25.391,32.227
1533222575,23.438,28.809
1533222575,19.531,27.832
1533222575,23.926,31.738
1533222575,41.504,32.227
1533222575,52.246,29.785
1533222575,37.598,29.297
1533222575,18.066,29.785
1533222575,16.113,28.32
1533222575,35.645,23.926
1533222575,45.41,23.926
1533222575,30.273,26.367
1533222575,19.531,27.832
1533222575,29.785,32.715
1533222575,44.434,34.668
1533222575,57.129,30.273
1533222575,53.223,27.832
1533222575,36.133,32.227
1533222575,25.879,28.809
1533222575,38.086,25.391
1533222575,55.176,27.344
1533222575,42.48,26.855
1533222575,22.461,30.273
1533222575,18.555,30.762
1533222575,30.273,27.344
1533222575,46.875,28.809
1533222575,47.363,28.809
1533222575,43.945,28.809
1533222575,30.762,27.344
1533222575,29.297,24.414
1533222575,43.457,23.926
1533222575,44.922,27.832
1533222575,35.156,31.738
1533222575,23.438,30.762
1533222575,31.738,26.855
1533222575,44.434,23.926
1533222575,50.781,25.391
1533222575,34.18,28.809
1533222575,17.578,32.715
1533222575,33.691,27.832
1533222575,58.105,25.879
1533222575,62.012,30.762
1533222575,45.41,33.691
1533222575,25.391,33.203
1533222575,28.809,32.227
1533222575,48.34,33.203
1533222575,57.129,36.133
1533222575,53.711,33.203
1533222575,31.25,30.762
1533222575,19.531,25.879
1533222575,36.133,23.438
1533222575,53.711,23.926
1533222575,40.527,20.02
1533222575,19.043,20.02
1533222575,17.09,22.949
1533222575,34.668,26.367
1533222575,48.828,30.762
1533222575,42.969,24.414
1533222575,37.598,21.484
1533222575,37.109,30.273
1533222575,49.805,29.785
1533222575,73.73,28.32
1533222575,75.684,29.785
1533222575,54.199,28.809
1533222575,46.875,27.344
1533222575,63.965,23.438
1533222575,86.426,28.32
1533222575,81.055,32.227
1533222575,53.223,29.785
1533222575,38.574,33.691
1533222575,56.152,38.574
1533222575,79.102,39.551
1533222575,73.73,38.086
1533222575,53.711,35.156
1533222575,50.781,38.086
1533222575,57.129,37.109
1533222575,70.312,36.621
1533222575,73.73,37.109
1533222575,64.453,31.738
1533222575,54.688,32.715
1533222575,44.922,34.18
1533222575,62.5,36.133
1533222575,73.73,37.109
1533222575,64.941,30.762
1533222575,41.992,25.879
1533222575,38.574,28.32
1533222575,65.918,30.273
1533222575,61.035,29.297
1533222575,37.598,29.785
1533222575,22.461,29.785
1533222575,23.438,27.832
1533222575,40.039,29.785
1533222575,44.922,28.809
1533222575,40.039,27.344
1533222575,23.926,31.25
1533222575,18.066,29.785
1533222575,27.832,22.949
1533222575,37.598,25.391
1533222575,32.227,28.32
1533222575,11.719,27.344
1533222575,15.625,27.344
1533222575,35.645,25.391
1533222575,41.504,31.738
1533222575,37.598,33.203
1533222575,22.949,31.25
1533222575,17.578,38.574
1533222575,48.34,45.898
1533222575,73.242,41.992
1533222575,57.129,38.086
1533222575,40.039,39.062
1533222575,29.297,39.551
1533222575,32.715,37.109
1533222575,56.152,41.992
1533222575,56.641,42.969
1533222575,39.062,36.621
1533222575,33.203,39.062
1533222575,33.203,39.551
1533222575,47.363,38.574
1533222575,53.711,40.039
1533222575,37.109,38.086
1533222575,27.344,39.551
1533222575,27.832,43.457
1533222575,36.133,37.598
1533222575,41.016,31.738
1533222575,34.668,36.133
1533222575,28.32,44.922
1533222575,31.25,44.922
1533222575,44.922,41.016
1533222575,57.129,41.992
1533222575,46.387,41.504
1533222575,23.438,32.715
1533222575,30.273,28.32
1533222575,43.457,32.715
1533222575,42.969,39.551
1533222575,28.809,39.551
1533222575,16.602,34.18
1533222575,24.902,35.156
1533222575,46.875,34.668
1533222575,53.223,34.668
1533222575,41.504,38.086
1533222575,29.297,35.156
1533222575,33.691,36.133
1533222575,58.594,41.504
1533222575,62.012,37.109
1533222575,43.945,36.621
1533222575,28.32,35.645
1533222575,27.344,32.715
1533222575,35.156,32.227
1533222575,57.617,30.762
1533222575,61.035,30.762
1533222575,38.574,28.32
1533222575,36.621,30.273
1533222575,48.828,33.203
1533222575,61.523,30.762
1533222575,65.918,34.18
1533222575,46.875,39.551
1533222575,25.391,38.574
1533222575,34.668,34.668
1533222575,51.27,39.062
1533222575,44.922,42.48
1533222575,34.668,33.203
1533222575,22.461,29.785
1533222575,28.32,28.809
1533222575,48.828,28.809
1533222575,41.992,34.18
1533222575,26.855,37.109
1533222575,20.02,37.598
1533222575,31.738,45.41
1533222575,56.641,55.176
1533222575,54.688,57.617
1533222575,35.645,53.223
1533222575,27.344,52.734
1533222575,30.273,51.27
1533222575,42.969,43.945
1533222575,49.805,44.434
1533222575,49.316,46.387
1533222575,34.18,47.363
1533222575,29.297,50.781
1533222575,45.898,46.875
1533222575,53.711,42.969
1533222575,56.641,44.922
1533222575,39.551,45.41
1533222575,28.809,47.363
1533222575,48.828,51.27
1533222575,54.199,47.852
1533222575,46.387,49.316
1533222575,30.762,48.34
1533222575,29.297,47.363
1533222575,39.062,46.875
1533222575,44.434,45.41
1533222575,39.062,43.945
1533222575,20.02,41.992
1533222575,15.625,42.969
1533222575,29.785,40.527
1533222575,48.828,40.039
1533222575,44.922,42.48
1533222575,23.438,39.062
1533222575,22.949,35.156
1533222575,40.527,40.039
1533222575,58.594,38.086
1533222575,60.059,40.527
1533222575,59.082,51.758
1533222575,57.129,47.852
1533222576,31.738,39.551
1533222576,27.832,32.227
1533222576,49.316,34.18
1533222576,36.621,42.48
1533222576,7.812,34.18
1533222576,16.113,29.785
1533222576,32.715,31.738
1533222576,26.367,31.738
1533222576,20.02,35.156
1533222576,17.578,36.133
1533222576,16.602,31.25
1533222576,15.625,27.344
1533222576,24.414,27.832
1533222576,19.531,30.273
1533222576,14.648,28.809
1533222576,28.32,28.32
1533222576,35.645,32.715
1533222576,42.48,30.273
1533222576,42.48,30.273
1533222576,17.578,31.738
1533222576,13.184,31.25
1533222576,26.855,35.156
1533222576,31.25,33.691
1533222576,37.598,33.691
1533222576,27.832,37.598
1533222576,12.695,41.016
1533222576,16.113,45.41
1533222576,35.156,43.945
1533222576,45.41,41.992
1533222576,31.738,41.992
1533222576,2.441,41.016
1533222576,21.484,42.969
1533222576,43.945,39.551
1533222576,21.973,36.621
1533222576,1.953,39.551
1533222576,5.371,39.551
1533222576,23.926,35.645
1533222576,42.969,37.109
1533222576,38.086,37.598
1533222576,22.461,37.109
1533222576,16.602,36.621
1533222576,17.09,33.691
1533222576,37.598,30.273
1533222576,47.363,31.25
1533222576,24.902,22.461
1533222576,12.207,10.742
1533222576,20.996,8.301
1533222576,35.156,3.418
1533222576,32.715,-1.465
1533222576,23.438,0.977
1533222576,9.277,3.418
1533222576,0.488,1.953
1533222576,26.855,4.395
1533222576,39.062,-1.465
1533222576,16.602,-2.441
1533222576,5.371,0
1533222576,13.184,5.371
1533222576,24.902,6.348
1533222576,22.461,0.977
1533222576,24.414,5.859
1533222576,21.484,5.859
1533222576,10.742,9.277
1533222576,24.414,12.207
1533222576,41.504,7.812
1533222576,45.41,11.719
1533222576,34.668,13.672
1533222576,16.113,14.648
1533222576,24.414,17.578
1533222576,47.363,19.043
1533222576,36.621,18.066
1533222576,10.742,20.02
1533222576,8.789,21.973
1533222576,20.02,17.09
1533222576,31.25,18.066
1533222576,29.297,24.902
1533222576,23.438,23.926
1533222576,16.113,20.996
1533222576,15.625,19.531
1533222576,33.203,18.555
1533222576,39.551,20.996
1533222576,33.691,22.461
1533222576,32.715,25.879
1533222576,34.18,24.902
1533222576,53.223,21.484
1533222576,59.57,22.461
1533222576,40.039,23.438
1533222576,32.227,23.926
1533222576,28.32,22.949
1533222576,32.715,20.02
1533222576,44.434,19.043
1533222576,31.738,21.973
1533222576,19.043,22.461
1533222576,30.762,23.926
1533222576,43.457,27.344
1533222576,44.922,29.785
1533222576,41.016,33.203
1533222576,30.762,32.227
1533222576,17.578,29.297
1533222576,28.809,31.738
1533222576,46.875,31.25
1533222576,39.062,30.273
1533222576,28.809,34.668
1533222576,27.832,33.691
1533222576,41.016,26.367
1533222576,56.641,29.785
1533222576,52.246,32.227
1533222576,42.48,32.227
1533222576,37.598,37.598
1533222576,44.434,33.203
1533222576,55.664,30.273
1533222576,50.293,29.297
1533222576,21.973,27.344
1533222576,10.742,31.25
1533222576,29.297,34.18
1533222576,41.016,31.738
1533222576,43.457,28.809
1533222576,24.902,28.809
1533222576,11.23,27.832
1533222576,22.949,29.785
1533222576,35.645,32.227
1533222576,44.434,30.762
1533222576,31.738,29.297
1533222576,4.395,26.855
1533222576,16.602,29.785
1533222576,41.504,28.809
1533222576,45.898,30.762
1533222576,39.551,37.109
1533222576,30.762,36.621
1533222576,39.551,35.645
1533222576,53.711,33.203
1533222576,64.941,33.203
1533222576,53.711,32.227
1533222576,30.273,28.32
1533222576,22.461,28.809
1533222576,36.133,26.855
1533222576,50.293,30.273
1533222576,49.805,33.203
1533222576,32.715,32.715
1533222576,27.344,33.203
1533222576,47.363,28.32
1533222576,53.223,29.297
1533222576,45.898,39.551
1533222576,44.434,43.945
1533222576,24.902,32.715
1533222576,8.789,22.461
1533222576,24.414,26.367
1533222576,32.227,28.32
1533222576,4.395,24.414
1533222576,1.953,25.391
1533222576,32.715,25.391
1533222576,42.48,24.414
1533222576,29.297,23.926
1533222576,12.207,24.414
1533222576,5.371,30.762
1533222576,8.789,28.32
1533222576,26.367,22.949
1533222576,35.645,22.949
1533222576,32.227,21.484
1533222576,25.391,20.508
1533222576,25.391,20.996
1533222576,43.945,22.461
1533222576,40.039,20.508
1533222576,23.926,21.973
1533222576,20.996,25.391
1533222576,17.578,27.344
1533222576,33.691,31.738
1533222576,53.711,34.668
1533222576,38.086,34.668
1533222576,27.832,35.156
1533222576,36.621,36.621
1533222576,46.875,31.738
1533222576,53.711,33.691
1533222576,41.992,38.086
1533222576,15.137,31.738
1533222576,25.879,33.203
1533222576,48.34,36.133
1533222576,54.199,29.785
1533222576,50.293,30.762
1533222576,20.508,36.621
1533222576,19.043,35.156
1533222576,49.805,32.715
1533222576,53.711,30.273
1533222576,44.434,32.715
1533222576,30.273,34.18
1533222576,19.531,35.156
1533222576,31.738,32.715
1533222576,47.363,34.668
1533222576,32.227,37.598
1533222576,13.184,36.621
1533222576,23.926,36.133
1533222576,34.18,36.621
1533222576,36.621,33.691
1533222576,38.574,28.809
1533222576,28.32,30.762
1533222576,16.602,30.273
1533222576,25.391,29.297
1533222576,50.293,29.297
1533222576,52.734,28.809
1533222576,32.715,28.809
1533222576,23.926,31.25
1533222576,28.809,29.297
1533222576,55.176,24.902
1533222576,63.965,30.273
1533222576,31.25,31.738
1533222576,16.113,27.832
1533222576,36.133,28.809
1533222576,49.316,32.227
1533222576,48.828,33.691
1533222576,45.41,34.18
1533222576,20.02,32.227
1533222576,8.301,28.809
1533222576,35.156,26.855
1533222576,51.27,24.902
1533222576,42.969,27.832
1533222576,25.391,29.785
1533222576,24.902,26.367
1533222576,48.828,25.391
1533222576,49.316,27.832
1533222576,28.809,26.855
1533222576,18.555,19.531
1533222576,26.855,20.02
1533222576,44.434,24.414
1533222576,56.641,28.32
1533222576,48.828,25.391
1533222576,30.273,30.762
1533222576,23.438,37.598
1533222576,34.18,32.227
1533222576,42.969,31.25
1533222576,38.574,28.32
1533222576,23.926,30.273
1533222576,19.043,33.691
1533222576,32.227,30.762
1533222576,49.805,32.227
1533222576,42.48,31.738
1533222576,11.719,28.32
1533222576,18.066,34.18
1533222576,44.922,39.551
1533222576,52.734,38.086
1533222576,48.34,32.227
1533222576,25.391,32.227
1533222576,20.996,31.25
1533222576,31.25,25.391
1533222576,40.039,28.32
1533222576,47.363,32.715
1533222576,30.273,31.738
1533222576,16.113,25.391
1533222576,21.973,26.367
1533222576,47.852,28.809
1533222576,48.828,26.367
1533222576,28.809,25.391
1533222576,22.461,29.297
1533222576,21.973,28.809
1533222576,35.645,30.273
1533222576,46.387,35.156
1533222576,33.203,32.227
1533222576,12.695,30.273
1533222577,18.066,32.715
1533222577,38.574,29.297
1533222577,41.016,26.855
1533222577,33.203,28.809
1533222577,11.23,18.555
1533222577,-2.441,10.254
1533222577,10.254,9.277
1533222577,33.203,9.766
1533222577,33.203,15.137
1533222577,21.973,16.602
1533222577,15.137,14.16
1533222577,29.297,14.648
1533222577,40.527,13.184
1533222577,27.832,16.113
1533222577,14.648,22.949
1533222577,17.09,21.484
1533222577,30.273,20.508
1533222577,42.969,21.484
1533222577,40.527,22.461
1533222577,24.902,25.879
1533222577,13.672,25.879
1533222577,22.949,23.926
1533222577,31.738,25.879
1533222577,33.203,28.32
1533222577,22.461,26.855
1533222577,3.906,30.273
1533222577,11.719,31.738
1533222577,21.484,21.973
1533222577,22.949,20.02
1533222577,13.672,28.32
1533222577,5.859,28.809
1533222577,10.254,26.855
1533222577,26.367,27.832
1533222577,39.551,27.832
1533222577,24.902,29.297
1533222577,16.113,31.25
1533222577,30.273,31.738
1533222577,37.598,28.809
1533222577,45.898,29.297
1533222577,41.992,31.738
1533222577,24.414,30.273
1533222577,20.996,28.809
1533222577,30.762,28.32
1533222577,39.551,27.344
1533222577,43.945,28.32
1533222577,23.926,26.367
1533222577,13.672,26.855
1533222577,41.504,29.785
1533222577,56.152,29.297
1533222577,41.504,28.809
1533222577,16.113,34.668
1533222577,11.23,33.691
1533222577,31.738,32.227
1533222577,33.691,32.715
1533222577,28.809,32.715
1533222577,11.23,30.273
1533222577,0.488,31.25
1533222577,25.879,27.344
1533222577,43.945,26.367
1533222577,58.594,38.086
1533222577,44.434,43.457
1533222577,22.949,46.387
1533222577,41.504,46.387
1533222577,54.688,45.898
1533222577,50.293,46.875
1533222577,34.18,42.969
1533222577,15.137,39.551
1533222577,21.973,37.109
1533222577,41.504,35.645
1533222577,44.922,38.574
1533222577,21.973,37.109
1533222577,15.137,41.992
1533222577,29.785,47.852
1533222577,50.781,38.086
1533222577,44.922,35.645
1533222577,34.18,38.574
1533222577,24.902,35.645
1533222577,16.113,34.18
1533222577,36.133,29.297
1533222577,49.316,32.715
1533222577,41.016,38.086
1533222577,31.738,34.18
1533222577,27.344,29.297
1533222577,36.133,28.32
1533222577,48.828,31.738
1533222577,36.133,33.203
1533222577,17.09,27.344
1533222577,9.277,23.438
1533222577,22.461,23.926
1533222577,37.598,29.785
1533222577,30.762,30.273
1533222577,17.578,32.227
1533222577,25.391,26.855
1533222577,42.969,26.367
1533222577,47.363,29.785
1533222577,35.156,21.973
1533222577,12.207,19.043
1533222577,11.23,17.09
1533222577,28.32,17.09
1533222577,42.48,22.949
1533222577,45.898,26.855
1533222577,21.484,28.809
1533222577,12.695,24.414
1533222577,26.855,27.344
1533222577,39.551,26.855
1533222577,27.832,19.531
1533222577,4.395,22.461
1533222577,22.949,41.504
1533222577,45.898,56.641
1533222577,57.617,44.434
1533222577,37.109,36.133
1533222577,26.367,41.992
1533222577,23.926,41.992
1533222577,5.371,32.715
1533222577,26.855,30.762
1533222577,36.133,29.785
1533222577,11.23,29.785
1533222577,0.488,27.344
1533222577,18.555,21.484
1533222577,35.645,23.438
1533222577,31.738,22.949
1533222577,26.855,26.855
1533222577,32.227,25.879
1533222577,21.973,20.02
1533222577,30.762,19.531
1533222577,46.387,21.484
1533222577,33.691,30.273
1533222577,18.066,28.809
1533222577,31.25,27.832
1533222577,46.387,27.832
1533222577,39.062,26.855
1533222577,30.273,33.691
1533222577,14.16,35.645
1533222577,17.578,34.668
1533222577,33.203,36.133
1533222577,38.574,29.297
1533222577,40.527,23.926
1533222577,27.344,28.809
1533222577,7.324,23.926
1533222577,10.254,12.207
1533222577,37.598,20.02
1533222577,34.668,25.879
1533222577,8.301,11.23
1533222577,7.324,11.719
1533222577,29.785,27.832
1533222577,47.852,34.18
1533222577,42.48,26.367
1533222577,28.809,29.297
1533222577,30.762,39.551
1533222577,46.387,44.434
1533222577,55.664,45.41
1533222577,50.293,30.762
1533222577,29.785,24.902
1533222577,9.277,29.297
1533222577,9.766,31.738
1533222577,24.902,39.062
1533222577,39.062,45.41
1533222577,20.02,38.086
1533222577,2.441,34.668
1533222577,21.484,38.086
1533222577,60.547,55.176
1533222577,70.312,68.359
1533222577,55.176,75.195
1533222577,52.246,74.219
1533222577,40.527,55.176
1533222577,54.199,48.34
1533222577,55.176,41.504
1533222577,28.809,32.715
1533222577,10.742,35.645
1533222577,5.371,33.203
1533222577,26.367,26.367
1533222577,47.363,32.227
1533222577,40.039,40.527
1533222577,32.227,50.293
1533222577,31.738,48.34
1533222577,33.691,37.109
1533222577,43.945,31.738
1533222577,42.48,27.832
1533222577,22.461,28.809
1533222577,13.672,24.414
1533222577,27.832,21.973
1533222577,40.527,25.391
1533222577,30.273,33.691
1533222577,12.695,26.855
1533222577,12.207,21.484
1533222577,18.555,23.438
1533222577,23.438,21.973
1533222577,31.25,22.461
1533222577,28.32,19.531
1533222577,18.066,23.926
1533222577,28.32,30.762
1533222577,39.062,30.273
1533222577,38.086,29.785
1533222577,36.621,39.062
1533222577,46.875,54.688
1533222577,65.918,62.5
1533222577,82.031,67.383
1533222577,92.285,80.566
1533222577,94.727,90.82
1533222577,98.633,92.285
1533222577,88.867,78.125
1533222577,69.336,60.059
1533222577,67.383,47.363
1533222577,43.457,38.086
1533222577,13.672,29.785
1533222577,21.484,23.438
1533222577,41.992,26.367
1533222577,51.758,29.785
1533222577,33.203,21.484
1533222577,9.277,14.648
1533222577,13.184,15.137
1533222577,33.203,13.672
1533222577,44.434,17.09
1533222577,25.391,14.16
1533222577,15.137,7.324
1533222577,20.996,12.695
1533222577,25.879,18.555
1533222577,53.711,17.578
1533222577,52.246,15.137
1533222577,36.133,22.949
1533222577,29.297,33.203
1533222577,41.992,28.32
1533222577,65.918,32.715
1533222577,49.316,34.18
1533222577,26.855,29.297
1533222577,20.996,23.926
1533222577,23.438,19.043
1533222577,47.852,17.578
1533222577,47.852,15.137
1533222577,18.066,8.301
1533222577,15.625,16.113
1533222577,26.855,14.648
1533222577,42.969,3.906
1533222577,47.363,8.789
1533222577,20.996,8.789
1533222577,0,9.277
1533222577,13.672,8.301
1533222577,34.668,4.883
1533222577,33.691,0.977
1533222577,6.836,-8.789
1533222577,-13.184,-8.301
1533222577,-6.348,-2.441
1533222577,7.324,-8.301
1533222577,10.254,-7.324
1533222577,9.277,-5.859
1533222577,-4.883,-7.324
1533222577,-3.418,-3.418
1533222577,15.625,-5.859
1533222577,21.973,-2.441
1533222577,9.277,2.93
1533222577,-11.23,7.324
1533222577,-2.93,12.207
1533222577,23.438,9.766
1533222577,39.062,10.254
1533222577,27.344,13.184
1533222577,17.578,15.625
1533222578,24.902,26.367
1533222578,39.551,31.738
1533222578,58.105,33.691
1533222578,47.852,28.809
1533222578,23.926,20.996
1533222578,30.762,24.902
1533222578,43.945,32.227
1533222578,37.109,27.832
1533222578,21.484,20.508
1533222578,13.184,19.043
1533222578,12.207,22.461
1533222578,22.461,22.949
1533222578,38.574,22.949
1533222578,29.297,24.414
1533222578,11.23,22.949
1533222578,12.207,24.414
1533222578,22.461,21.484
1533222578,43.457,24.414
1533222578,47.852,24.902
1533222578,29.785,20.996
1533222578,29.785,19.531
1533222578,39.062,20.996
1533222578,51.27,20.02
1533222578,49.316,20.02
1533222578,31.25,22.949
1533222578,25.391,20.996
1533222578,31.25,21.973
1533222578,36.133,24.414
1533222578,48.34,28.32
1533222578,43.457,27.832
1533222578,16.602,16.602
1533222578,7.812,10.254
1533222578,24.902,14.16
1533222578,39.062,18.066
1533222578,39.062,28.809
1533222578,33.691,35.156
1533222578,38.574,38.086
1533222578,54.688,40.039
1533222578,61.035,37.598
1533222578,54.688,34.18
1533222578,37.598,27.832
1533222578,39.551,27.344
1533222578,55.664,33.691
1533222578,58.105,31.25
1533222578,57.129,33.203
1533222578,41.504,36.133
1533222578,40.039,38.086
1533222578,56.641,40.527
1533222578,56.152,38.086
1533222578,47.363,43.457
1533222578,35.156,40.039
1533222578,25.391,29.785
1533222578,43.945,35.156
1533222578,53.711,36.133
1533222578,44.922,33.203
1533222578,38.574,30.273
1533222578,28.809,33.691
1533222578,19.043,38.086
1533222578,37.109,36.133
1533222578,50.781,33.203
1533222578,40.527,34.668
1533222578,14.648,36.621
1533222578,16.113,34.668
1533222578,46.875,35.156
1533222578,44.434,38.086
1533222578,35.156,30.273
1533222578,32.715,31.738
1533222578,29.785,37.598
1533222578,42.969,34.668
1533222578,44.434,32.715
1533222578,28.809,31.738
1533222578,15.137,35.156
1533222578,23.438,32.715
1533222578,47.363,37.109
1533222578,58.594,36.621
1533222578,56.152,30.273
1533222578,46.875,33.691
1533222578,37.598,37.598
1533222578,52.734,36.621
1533222578,62.012,35.156
1533222578,52.246,39.062
1533222578,41.504,44.434
1533222578,43.945,36.621
1533222578,56.641,31.25
1533222578,70.312,35.156
1533222578,53.223,37.598
1533222578,31.738,44.434
1533222578,26.367,41.016
1533222578,42.48,29.785
1533222578,52.734,32.227
1533222578,41.016,36.621
1533222578,25.391,34.18
1533222578,24.902,28.32
1533222578,44.434,28.32
1533222578,57.129,30.273
1533222578,55.176,24.414
1533222578,37.109,21.484
1533222578,30.273,23.438
1533222578,41.504,32.715
1533222578,69.824,34.18
1533222578,68.359,31.25
1533222578,37.109,28.32
1533222578,31.738,26.855
1533222578,42.48,29.785
1533222578,62.988,35.156
1533222578,60.059,38.574
1533222578,40.039,30.762
1533222578,32.715,29.785
1533222578,35.156,36.621
1533222578,44.434,30.762
1533222578,51.758,24.414
1533222578,43.945,32.715
1533222578,23.438,34.668
1533222578,26.367,30.273
1533222578,52.734,32.227
1533222578,60.059,31.738
1533222578,30.762,28.32
1533222578,16.113,29.785
1533222578,12.695,28.809
1533222578,20.508,32.227
1533222578,34.18,25.879
1533222578,33.203,20.996
1533222578,26.855,33.691
1533222578,21.973,31.738
1533222578,35.156,29.297
1533222578,56.641,31.738
1533222578,51.27,32.715
1533222578,21.484,33.203
1533222578,4.883,36.133
1533222578,31.25,28.809
1533222578,47.852,22.461
1533222578,50.781,28.809
1533222578,33.203,33.203
1533222578,15.137,34.668
1533222578,39.551,32.715
1533222578,62.5,29.785
