timestamps,TP9,AF7
1533059192,30.762,15.625
1533059193,26.367,13.672
1533059193,21.484,14.16
1533059193,11.719,15.625
1533059193,17.578,16.113
1533059193,32.715,17.578
1533059193,30.273,17.09
1533059193,15.625,15.625
1533059193,2.93,16.113
1533059193,12.207,17.09
1533059193,27.344,16.113
1533059193,20.02,15.137
1533059193,12.695,19.043
1533059193,4.395,17.09
1533059193,13.672,16.113
1533059193,31.25,21.484
1533059193,26.367,23.438
1533059193,19.531,24.902
1533059193,6.348,21.484
1533059193,12.695,21.484
1533059193,29.785,25.391
1533059193,28.809,23.926
1533059193,25.391,21.973
1533059193,16.113,21.484
1533059193,14.16,21.973
1533059193,27.832,21.973
1533059193,30.273,20.02
1533059193,27.344,19.531
1533059193,23.438,20.508
1533059193,21.973,20.02
1533059193,36.133,21.484
1533059193,32.227,20.02
1533059193,21.484,19.531
1533059193,14.16,19.043
1533059193,16.113,14.16
1533059193,38.086,19.043
1533059193,39.551,23.438
1533059193,24.414,20.02
1533059193,16.602,16.602
1533059193,7.812,7.324
1533059193,26.367,0
1533059193,41.504,6.348
1533059193,24.902,11.719
1533059193,21.484,13.184
1533059193,15.625,20.996
1533059193,22.949,25.879
1533059193,32.227,22.949
1533059193,22.461,16.113
1533059193,22.461,12.207
1533059193,14.16,15.137
1533059193,10.254,20.996
1533059193,25.391,23.926
1533059193,32.227,29.785
1533059193,24.902,31.738
1533059193,4.395,28.809
1533059193,0,25.879
1533059193,20.508,23.926
1533059193,27.832,23.438
1533059193,26.367,25.879
1533059193,19.531,27.832
1533059193,19.043,26.367
1533059193,36.133,26.855
1533059193,37.598,25.879
1533059193,21.973,20.996
1533059193,11.719,16.602
1533059193,18.555,15.625
1533059193,37.109,21.484
1533059193,36.133,24.902
1533059193,21.973,22.461
1533059193,10.742,20.996
1533059193,13.184,21.973
1533059193,34.18,23.926
1533059193,37.598,23.926
1533059193,28.32,20.996
1533059193,21.484,18.066
1533059193,19.043,18.555
1533059193,34.18,19.043
1533059193,40.039,20.996
1533059193,31.738,24.414
1533059193,24.902,24.414
1533059193,17.09,25.391
1533059193,32.715,26.367
1533059193,36.621,22.461
1533059193,22.949,17.09
1533059193,17.578,15.625
1533059193,15.625,12.695
1533059193,28.32,15.137
1533059193,34.18,22.949
1533059193,27.832,21.973
1533059193,20.996,19.531
1533059193,4.395,18.066
1533059193,7.324,15.137
1533059193,32.227,14.648
1533059193,40.527,16.602
1533059193,31.738,19.531
1533059193,19.043,21.973
1533059193,21.973,21.973
1533059193,37.109,20.508
1533059193,40.039,20.02
1533059193,32.227,20.996
1533059193,14.648,20.996
1533059193,12.207,23.926
1533059193,33.691,27.344
1533059193,36.621,26.367
1533059193,23.926,24.902
1533059193,17.09,25.879
1533059193,12.695,26.367
1533059193,23.926,25.391
1533059193,36.133,23.438
1533059193,33.203,27.344
1533059193,22.461,32.715
1533059193,15.137,30.762
1533059193,31.738,27.344
1533059193,39.062,29.785
1533059193,31.25,28.32
1533059193,22.949,22.949
1533059193,13.184,23.438
1533059193,30.273,25.391
1533059193,44.434,25.391
1533059193,36.133,25.391
1533059193,25.391,22.949
1533059193,17.578,22.461
1533059193,26.367,22.949
1533059193,37.109,26.367
1533059193,35.645,27.832
1533059193,26.367,27.832
1533059193,16.602,29.785
1533059193,26.367,28.809
1533059193,39.551,25.879
1533059193,37.598,26.367
1533059193,32.227,26.367
1533059193,20.02,21.973
1533059193,21.484,17.578
1533059193,35.156,18.555
1533059193,32.227,19.531
1533059193,27.344,18.066
1533059193,18.066,16.602
1533059193,20.508,14.16
1533059193,36.621,12.695
1533059193,30.273,9.277
1533059193,20.508,10.254
1533059193,14.648,15.625
1533059193,18.066,17.578
1533059193,34.18,14.16
1533059193,37.598,12.695
1533059193,26.855,14.16
1533059193,14.648,15.625
1533059193,13.672,13.184
1533059193,24.902,10.742
1533059193,29.785,11.719
1533059193,28.32,13.672
1533059193,18.066,12.695
1533059193,14.16,13.184
1533059193,29.297,15.137
1533059193,37.598,15.137
1533059193,31.738,16.113
1533059193,20.996,17.578
1533059193,20.996,12.695
1533059193,39.062,7.812
1533059193,48.34,12.207
1533059193,43.457,20.508
1533059193,30.762,24.414
1533059193,12.695,25.879
1533059193,19.531,25.879
1533059193,38.086,24.902
1533059193,33.203,21.973
1533059193,25.879,21.973
1533059193,16.113,20.996
1533059193,20.996,19.531
1533059193,38.574,22.949
1533059193,39.062,24.902
1533059193,32.227,22.461
1533059193,20.508,21.484
1533059193,19.043,18.066
1533059193,34.18,17.578
1533059193,31.25,18.555
1533059193,20.508,16.113
1533059193,14.648,16.113
1533059193,19.531,17.09
1533059193,37.598,18.555
1533059193,40.039,19.531
1533059193,33.203,21.484
1533059193,28.32,23.926
1533059193,27.344,22.461
1533059193,39.062,21.484
1533059193,40.039,20.02
1533059193,27.344,20.02
1533059193,20.508,20.508
1533059193,17.09,19.531
1533059193,33.203,21.484
1533059193,45.898,26.855
1533059193,37.109,28.809
1533059193,22.461,25.391
1533059193,25.391,24.902
1533059193,48.34,25.391
1533059193,51.27,26.855
1533059193,37.598,29.297
1533059193,16.113,28.809
1533059193,2.441,19.531
1533059193,30.273,13.184
1533059193,26.367,22.461
1533059193,12.695,33.691
1533059193,25.879,37.109
1533059193,4.395,31.738
1533059193,7.324,26.367
1533059193,33.691,21.973
1533059193,21.973,19.043
1533059193,6.836,20.02
1533059193,-5.371,16.113
1533059193,8.789,11.23
1533059193,44.922,12.695
1533059193,35.645,21.484
1533059193,20.508,29.297
1533059193,20.996,31.25
1533059193,15.625,28.32
1533059193,22.949,25.879
1533059193,29.297,25.879
1533059193,22.461,24.414
1533059193,4.395,20.508
1533059193,4.395,16.602
1533059193,30.762,15.625
1533059193,41.016,19.531
1533059193,32.227,25.879
1533059193,20.508,22.949
1533059193,17.09,18.066
1533059193,29.785,21.973
1533059193,38.574,21.484
1533059193,37.109,19.531
1533059193,23.926,22.949
1533059193,9.277,23.438
1533059193,20.996,24.414
1533059193,32.715,22.949
1533059193,19.531,19.043
1533059193,8.789,17.09
1533059193,13.672,17.578
1533059193,31.25,15.137
1533059193,38.086,11.719
1533059193,31.25,10.742
1533059193,20.508,8.301
1533059193,16.113,11.23
1533059193,24.902,11.23
1533059193,31.738,13.672
1533059193,29.297,19.043
1533059193,14.648,17.09
1533059193,0.977,16.113
1533059193,8.789,17.09
1533059193,20.508,15.625
1533059193,28.32,11.719
1533059193,27.832,10.254
1533059193,12.695,18.066
1533059193,14.648,22.461
1533059193,27.832,15.625
1533059193,22.949,10.254
1533059193,22.461,12.695
1533059193,16.113,20.02
1533059193,9.277,20.02
1533059193,24.414,16.113
1533059194,39.062,16.602
1533059194,36.133,18.555
1533059194,18.555,20.996
1533059194,17.578,17.09
1533059194,35.156,11.23
1533059194,41.016,10.254
1533059194,34.668,11.719
1533059194,26.855,10.254
1533059194,30.273,12.207
1533059194,42.48,16.602
1533059194,46.387,21.973
1533059194,41.504,25.391
1533059194,35.156,24.902
1533059194,35.156,27.344
1533059194,41.992,23.926
1533059194,41.504,20.508
1533059194,41.016,20.02
1533059194,31.25,18.555
1533059194,19.531,19.043
1533059194,33.691,16.113
1533059194,47.852,18.066
1533059194,47.852,24.902
1533059194,29.297,26.855
1533059194,12.207,21.973
1533059194,32.227,19.531
1533059194,48.34,23.926
1533059194,44.434,32.715
1533059194,27.832,30.273
1533059194,13.184,19.531
1533059194,28.809,17.578
1533059194,47.852,25.879
1533059194,39.551,30.762
1533059194,28.32,28.809
1533059194,25.391,28.32
1533059194,29.785,25.879
1533059194,32.227,20.02
1533059194,31.738,17.09
1533059194,27.344,14.648
1533059194,11.719,10.254
1533059194,19.531,11.23
1533059194,36.133,14.16
1533059194,34.18,17.578
1533059194,30.762,16.602
1533059194,13.672,13.184
1533059194,6.836,15.625
1533059194,26.855,18.555
1533059194,34.18,15.137
1533059194,33.203,12.207
1533059194,25.391,13.672
1533059194,17.578,12.207
1533059194,32.715,10.742
1533059194,46.387,15.625
1533059194,45.898,19.043
1533059194,35.156,20.508
1533059194,18.555,20.508
1533059194,35.156,16.113
1533059194,48.34,11.23
1533059194,40.527,11.719
1533059194,27.832,20.508
1533059194,9.277,28.809
1533059194,21.973,27.344
1533059194,28.809,23.438
1533059194,9.277,22.461
1533059194,9.766,20.508
1533059194,19.531,19.531
1533059194,33.203,23.926
1533059194,37.598,22.461
1533059194,30.273,18.066
1533059194,28.809,16.602
1533059194,22.949,20.508
1533059194,23.438,24.902
1533059194,36.621,22.461
1533059194,38.086,19.531
1533059194,27.832,18.066
1533059194,11.719,21.973
1533059194,16.602,24.414
1533059194,37.109,25.879
1533059194,36.133,25.391
1533059194,23.926,20.508
1533059194,12.695,17.09
1533059194,15.625,14.648
1533059194,38.574,14.648
1533059194,39.551,15.625
1533059194,27.344,14.648
1533059194,20.996,14.16
1533059194,19.531,15.625
1533059194,27.344,13.184
1533059194,31.25,13.184
1533059194,31.25,22.461
1533059194,25.879,28.32
1533059194,29.785,27.344
1533059194,47.363,25.391
1533059194,53.223,22.949
1533059194,48.828,21.973
1533059194,35.645,23.926
1533059194,26.855,25.879
1533059194,41.504,26.367
1533059194,46.875,28.809
1533059194,38.574,25.391
1533059194,33.203,24.414
1533059194,25.391,27.344
1533059194,30.762,24.414
1533059194,41.504,26.367
1533059194,32.715,30.762
1533059194,21.484,33.691
1533059194,12.695,29.785
1533059194,18.066,22.949
1533059194,31.738,18.555
1533059194,25.879,21.484
1533059194,15.625,26.855
1533059194,12.695,26.855
1533059194,21.484,24.902
1533059194,35.156,25.391
1533059194,30.762,20.508
1533059194,19.531,19.531
1533059194,8.789,19.531
1533059194,12.695,15.625
1533059194,33.691,20.02
1533059194,36.133,27.832
1533059194,26.855,29.297
1533059194,14.648,27.832
1533059194,14.16,26.367
1533059194,33.691,25.879
1533059194,38.574,27.344
1533059194,31.738,31.25
1533059194,21.484,34.18
1533059194,17.578,31.738
1533059194,35.156,31.738
1533059194,41.504,34.18
1533059194,32.227,32.715
1533059194,24.902,32.227
1533059194,24.902,30.273
1533059194,36.621,25.879
1533059194,36.621,25.391
1533059194,24.414,27.344
1533059194,17.578,27.832
1533059194,16.602,27.832
1533059194,33.203,26.367
1533059194,42.48,23.926
1533059194,30.762,21.973
1533059194,21.484,20.02
1533059194,20.02,20.508
1533059194,28.32,18.555
1533059194,36.621,16.113
1533059194,31.738,16.602
1533059194,21.973,15.137
1533059194,14.648,16.602
1533059194,24.902,19.043
1533059194,36.621,20.02
1533059194,34.668,20.02
1533059194,24.902,20.996
1533059194,7.324,20.508
1533059194,13.672,18.555
1533059194,32.715,17.578
1533059194,30.762,20.508
1533059194,20.02,22.461
1533059194,12.695,21.484
1533059194,18.555,19.531
1533059194,29.297,22.949
1533059194,23.926,26.855
1533059194,15.625,25.391
1533059194,5.859,24.902
1533059194,8.789,25.391
1533059194,28.809,25.391
1533059194,27.344,26.367
1533059194,16.113,25.879
1533059194,9.766,24.902
1533059194,10.254,25.879
1533059194,26.855,23.926
1533059194,32.227,24.414
1533059194,21.973,25.391
1533059194,18.066,24.902
1533059194,15.625,23.926
1533059194,25.879,20.508
1533059194,31.25,19.531
1533059194,22.461,21.484
1533059194,18.066,21.973
1533059194,14.648,23.438
1533059194,28.32,22.461
1533059194,38.574,21.484
1533059194,27.832,19.043
1533059194,16.113,17.578
1533059194,8.789,16.113
1533059194,18.555,14.648
1533059194,24.414,17.578
1533059194,12.207,14.648
1533059194,4.883,11.23
1533059194,1.465,12.695
1533059194,11.23,13.184
1533059194,24.414,12.207
1533059194,20.996,11.719
1533059194,14.648,10.742
1533059194,4.395,8.789
1533059194,14.648,10.742
1533059194,33.203,15.137
1533059194,21.484,11.23
1533059194,8.789,7.324
1533059194,5.371,8.301
1533059194,8.789,12.207
1533059194,22.461,17.578
1533059194,26.855,19.043
1533059194,20.02,18.066
1533059194,5.859,15.625
1533059194,0.977,15.625
1533059194,20.996,17.09
1533059194,26.855,16.602
1533059194,14.648,15.625
1533059194,4.395,16.602
1533059194,6.348,17.09
1533059194,25.391,14.16
1533059194,27.832,13.184
1533059194,20.508,15.625
1533059194,14.648,20.02
1533059194,10.742,21.973
1533059194,23.438,22.461
1533059194,30.273,22.949
1533059194,27.344,23.438
1533059194,16.113,24.902
1533059194,5.371,26.367
1533059194,17.09,23.926
1533059194,28.32,26.367
1533059194,20.996,29.785
1533059194,11.719,27.832
1533059194,5.859,26.855
1533059194,18.066,25.879
1533059194,35.645,25.391
1533059194,35.156,23.926
1533059194,21.484,21.973
1533059194,7.324,20.508
1533059194,15.625,18.555
1533059194,31.25,21.484
1533059194,33.203,26.855
1533059194,19.531,25.879
1533059194,4.395,22.949
1533059194,13.672,20.996
1533059194,33.691,21.484
1533059194,38.574,23.438
1533059194,36.621,25.391
1533059194,28.32,27.344
1533059194,30.273,26.855
1533059194,44.434,23.438
1533059194,39.551,22.461
1533059194,30.762,22.461
1533059194,25.879,24.414
1533059194,27.832,27.832
1533059194,46.387,28.32
1533059194,50.293,27.344
1533059194,36.133,25.879
1533059194,23.438,25.391
1533059194,20.02,27.832
1533059194,29.297,26.367
1533059194,26.855,23.438
1533059194,18.066,21.973
1533059194,15.625,22.949
1533059194,11.23,21.973
1533059194,22.461,20.508
1533059195,33.203,20.996
1533059195,28.32,22.461
1533059195,20.996,25.391
1533059195,17.09,23.926
1533059195,28.809,20.02
1533059195,40.039,18.555
1533059195,34.668,18.555
1533059195,28.32,21.484
1533059195,21.484,20.996
1533059195,28.809,17.09
1533059195,43.457,20.02
1533059195,41.992,22.949
1533059195,29.785,21.973
1533059195,18.555,22.949
1533059195,28.32,23.438
1533059195,41.992,22.949
1533059195,41.504,23.926
1533059195,29.297,21.973
1533059195,11.23,20.508
1533059195,19.531,23.926
1533059195,44.922,25.391
1533059195,41.016,24.414
1533059195,27.344,24.414
1533059195,15.625,22.949
1533059195,16.113,20.508
1533059195,30.762,18.555
1533059195,32.715,20.02
1533059195,28.809,20.508
1533059195,15.625,18.066
1533059195,10.254,17.578
1533059195,31.738,20.508
1533059195,33.203,19.043
1533059195,21.973,15.137
1533059195,13.672,17.578
1533059195,5.371,19.043
1533059195,21.484,18.555
1533059195,34.18,20.508
1533059195,26.367,20.508
1533059195,21.484,20.02
1533059195,16.602,18.066
1533059195,26.855,18.555
1533059195,40.527,23.926
1533059195,37.109,22.461
1533059195,26.855,19.043
1533059195,14.648,20.02
1533059195,19.531,17.09
1533059195,31.738,17.09
1533059195,31.25,21.484
1533059195,20.996,24.414
1533059195,13.184,23.438
1533059195,16.113,20.996
1533059195,21.484,20.02
1533059195,22.949,19.531
1533059195,21.484,20.996
1533059195,3.906,22.949
1533059195,2.93,17.09
1533059195,24.414,15.137
1533059195,26.855,19.043
1533059195,18.555,18.066
1533059195,7.324,17.09
1533059195,6.348,14.648
1533059195,21.484,14.648
1533059195,22.949,17.09
1533059195,19.043,20.508
1533059195,13.184,21.484
1533059195,16.602,19.531
1533059195,31.738,19.043
1533059195,36.133,19.531
1533059195,30.273,20.02
1533059195,17.09,19.531
1533059195,19.531,20.508
1533059195,40.039,24.902
1533059195,48.34,25.391
1533059195,42.969,22.949
1533059195,31.25,20.996
1533059195,24.902,23.926
1533059195,37.598,27.832
1533059195,36.621,28.32
1533059195,26.855,26.855
1533059195,27.832,27.832
1533059195,22.949,28.32
1533059195,36.133,26.367
1533059195,41.504,27.832
1533059195,27.344,30.762
1533059195,23.926,31.25
1533059195,24.414,32.715
1533059195,33.203,29.297
1533059195,45.41,29.297
1533059195,39.551,29.297
1533059195,26.367,26.367
1533059195,21.484,27.832
1533059195,32.227,27.832
1533059195,42.48,24.414
1533059195,41.016,23.438
1533059195,32.715,24.902
1533059195,21.973,24.414
1533059195,27.832,24.902
1533059195,42.48,26.367
1533059195,40.039,25.879
1533059195,32.227,27.344
1533059195,26.367,28.809
1533059195,30.762,28.32
1533059195,42.969,28.32
1533059195,42.48,31.25
1533059195,38.086,31.738
1533059195,27.344,29.785
1533059195,20.508,28.809
1533059195,36.133,25.879
1533059195,38.574,26.367
1533059195,30.762,30.762
1533059195,23.438,29.297
1533059195,19.043,27.344
1533059195,34.668,23.926
1533059195,37.598,18.555
1533059195,27.344,15.625
1533059195,14.648,15.137
1533059195,6.348,17.578
1533059195,21.973,17.09
1533059195,27.832,15.137
1533059195,19.043,14.16
1533059195,12.207,15.137
1533059195,6.836,18.555
1533059195,16.602,21.973
1533059195,27.344,24.414
1533059195,23.926,23.926
1533059195,14.16,21.484
1533059195,8.301,22.461
1533059195,21.973,24.414
1533059195,39.062,25.391
1533059195,29.785,25.391
1533059195,20.508,22.461
1533059195,8.301,20.508
1533059195,14.16,22.461
1533059195,40.039,23.926
1533059195,38.086,24.902
1533059195,18.555,25.879
1533059195,6.348,27.344
1533059195,14.16,27.344
1533059195,31.25,27.344
1533059195,33.691,30.762
1533059195,22.949,28.32
1533059195,9.766,23.926
1533059195,10.254,23.438
1533059195,25.879,24.414
1533059195,24.414,25.879
1533059195,16.113,26.367
1533059195,11.23,28.32
1533059195,7.324,26.367
1533059195,20.02,23.438
1533059195,28.32,23.438
1533059195,23.438,20.508
1533059195,18.555,20.508
1533059195,20.508,24.414
1533059195,33.691,21.484
1533059195,41.504,19.531
1533059195,35.156,22.461
1533059195,20.996,20.996
1533059195,17.578,20.508
1533059195,33.691,21.484
1533059195,34.18,20.508
1533059195,21.484,19.043
1533059195,9.766,20.508
1533059195,-4.395,22.461
1533059195,2.441,20.02
1533059195,14.16,17.578
1533059195,11.719,17.09
1533059195,5.859,17.09
1533059195,-2.441,18.066
1533059195,16.602,19.531
1533059195,35.645,19.043
1533059195,29.297,17.578
1533059195,22.461,15.625
1533059195,13.184,14.648
1533059195,21.973,13.184
1533059195,40.039,15.625
1533059195,36.621,20.02
1533059195,23.438,21.484
1533059195,7.324,20.02
1533059195,8.789,15.137
1533059195,32.227,15.137
1533059195,34.668,21.973
1533059195,17.09,22.949
1533059195,0.977,19.531
1533059195,6.348,21.484
1533059195,21.484,23.438
1533059195,10.254,21.973
1533059195,-0.977,19.531
1533059195,-3.418,18.066
1533059195,2.441,20.02
1533059195,21.484,23.438
1533059195,30.762,26.367
1533059195,22.461,25.879
1533059195,8.301,24.902
1533059195,16.113,24.414
1533059195,43.457,21.973
1533059195,49.805,23.438
1533059195,38.086,28.32
1533059195,30.762,31.25
1533059195,28.809,27.832
1533059195,41.504,21.973
1533059195,49.316,18.066
1533059195,40.527,16.602
1533059195,30.273,19.043
1533059195,24.414,22.461
1533059195,37.598,21.484
1533059195,41.016,21.973
1533059195,22.461,19.531
1533059195,16.602,17.578
1533059195,9.277,19.531
1533059195,7.324,19.043
1533059195,12.207,16.602
1533059195,8.789,15.625
1533059195,9.277,15.137
1533059195,-0.488,14.648
1533059195,3.906,14.16
1533059195,23.926,14.16
1533059195,25.391,16.602
1533059195,20.996,19.043
1533059195,18.555,22.949
1533059195,23.926,23.438
1533059195,41.992,16.602
1533059195,48.828,14.16
1533059195,48.34,23.926
1533059195,35.156,30.762
1533059195,29.785,30.273
1533059195,46.387,29.785
1533059195,46.875,27.832
1533059195,30.273,22.949
1533059195,20.508,22.461
1533059195,24.902,22.949
1533059195,38.574,23.926
1533059195,41.992,23.438
1533059195,30.762,19.531
1533059195,18.066,19.043
1533059195,16.113,20.508
1533059195,36.133,20.996
1533059195,42.969,19.531
1533059195,29.785,18.555
1533059195,18.555,18.066
1533059195,17.09,17.09
1533059195,28.809,16.602
1533059195,38.086,18.555
1533059195,30.273,18.066
1533059195,18.555,18.555
1533059195,15.625,18.066
1533059195,32.715,16.113
1533059195,46.875,18.066
1533059195,43.945,21.973
1533059195,32.227,19.043
1533059195,22.461,16.602
1533059195,36.621,20.508
1533059195,56.641,21.973
1533059195,50.293,20.508
1533059195,41.016,19.043
1533059195,31.25,20.02
1533059195,28.32,20.996
1533059196,38.086,19.531
1533059196,36.621,18.066
1533059196,29.785,20.996
1533059196,22.461,22.461
1533059196,24.414,21.484
1533059196,39.062,21.973
1533059196,40.039,23.926
1533059196,31.25,24.414
1533059196,25.879,21.973
1533059196,29.297,21.973
1533059196,46.875,23.438
1533059196,50.293,19.531
1533059196,41.504,18.066
1533059196,32.715,20.508
1533059196,27.344,19.531
1533059196,38.086,16.113
1533059196,39.062,14.648
1533059196,33.691,20.02
1533059196,23.926,23.438
1533059196,19.043,22.461
1533059196,35.156,22.949
1533059196,42.48,21.973
1533059196,32.227,19.531
1533059196,22.949,17.578
1533059196,15.137,15.625
1533059196,24.902,16.113
1533059196,33.203,17.578
1533059196,23.438,14.16
1533059196,20.02,11.719
1533059196,11.23,14.648
1533059196,15.625,14.16
1533059196,29.297,12.207
1533059196,24.902,9.766
1533059196,16.113,5.371
1533059196,5.371,8.301
1533059196,11.719,5.371
1533059196,28.32,1.953
1533059196,30.762,5.371
1533059196,20.02,7.812
1533059196,7.812,14.16
1533059196,19.043,19.531
1533059196,27.832,17.09
1533059196,19.043,13.672
1533059196,18.555,16.113
1533059196,8.789,13.672
1533059196,0,9.277
1533059196,19.043,12.207
1533059196,25.391,15.625
1533059196,20.508,21.973
1533059196,10.254,25.391
1533059196,8.301,19.531
1533059196,28.32,18.555
1533059196,29.297,16.113
1533059196,20.02,14.648
1533059196,20.02,18.555
1533059196,20.508,19.531
1533059196,32.715,22.461
1533059196,39.551,23.438
1533059196,29.297,22.949
1533059196,22.949,24.414
1533059196,16.602,23.438
1533059196,26.855,23.926
1533059196,40.039,26.855
1533059196,38.574,27.344
1533059196,23.926,24.902
1533059196,2.93,24.414
1533059196,14.648,22.949
1533059196,37.109,21.973
1533059196,36.133,25.391
1533059196,23.926,30.273
1533059196,11.23,29.785
1533059196,25.879,26.855
1533059196,40.527,24.902
1533059196,31.25,23.926
1533059196,21.973,24.902
1533059196,9.277,26.855
1533059196,13.672,30.273
1533059196,32.227,32.715
1533059196,33.203,31.738
1533059196,27.344,32.227
1533059196,12.695,28.32
1533059196,13.184,24.414
1533059196,30.762,26.367
1533059196,32.715,26.367
1533059196,20.996,24.414
1533059196,8.789,24.902
1533059196,11.719,24.414
1533059196,33.203,25.391
1533059196,33.691,26.855
1533059196,14.648,25.391
1533059196,2.93,25.879
1533059196,-1.465,23.438
1533059196,16.113,18.066
1533059196,28.32,18.066
1533059196,24.902,22.461
1533059196,15.137,23.438
1533059196,9.766,21.484
1533059196,24.414,23.438
1533059196,32.715,21.484
1533059196,25.391,17.578
1533059196,16.602,16.602
1533059196,13.672,17.578
1533059196,26.367,15.625
1533059196,36.621,14.16
1533059196,31.738,15.625
1533059196,20.996,16.113
1533059196,5.859,13.672
1533059196,11.719,15.625
1533059196,21.973,15.137
1533059196,17.578,15.137
1533059196,5.859,17.09
1533059196,-4.395,19.531
1533059196,6.348,25.391
1533059196,23.438,28.809
1533059196,22.461,26.855
1533059196,10.254,26.855
1533059196,1.465,24.902
1533059196,13.672,22.461
1533059196,33.203,24.902
1533059196,31.738,22.949
1533059196,23.926,22.461
1533059196,11.719,23.926
1533059196,19.043,20.996
1533059196,41.016,21.973
1533059196,39.062,20.508
1533059196,32.715,16.602
1533059196,26.367,17.09
1533059196,24.902,18.066
1533059196,34.18,18.555
1533059196,31.25,18.066
1533059196,22.949,17.578
1533059196,4.883,19.043
1533059196,-5.371,22.461
1533059196,9.766,21.973
1533059196,12.207,18.555
1533059196,3.906,13.672
1533059196,-6.348,9.766
1533059196,-10.742,13.184
1533059196,10.742,18.066
1533059196,17.578,17.09
1533059196,9.766,12.695
1533059196,6.348,16.602
1533059196,0.977,20.508
1533059196,16.602,18.555
1533059196,27.344,17.578
1533059196,24.902,17.09
1533059196,28.32,14.16
1533059196,22.461,15.137
1533059196,24.902,17.09
1533059196,37.598,15.625
1533059196,40.527,14.16
1533059196,31.738,13.184
1533059196,16.113,12.695
1533059196,27.832,16.602
1533059196,49.316,20.996
1533059196,41.504,19.043
1533059196,24.902,13.672
1533059196,15.137,10.254
1533059196,21.484,10.742
1533059196,34.668,14.648
1533059196,32.227,16.113
1533059196,25.879,14.648
1533059196,14.16,13.672
1533059196,16.113,14.16
1533059196,35.645,17.578
1533059196,37.598,21.484
1533059196,25.391,24.902
1533059196,13.672,27.344
1533059196,11.719,25.879
1533059196,26.367,23.438
1533059196,30.273,22.461
1533059196,24.902,22.949
1533059196,16.602,22.949
1533059196,12.207,20.996
1533059196,20.02,18.555
1533059196,14.648,17.578
1533059196,6.836,14.648
1533059196,7.324,13.672
1533059196,4.883,15.625
1533059196,16.602,18.066
1533059196,30.273,23.438
1533059196,24.902,24.902
1533059196,16.602,22.461
1533059196,17.09,20.508
1533059196,32.227,16.602
1533059196,44.434,18.066
1533059196,40.527,20.996
1533059196,26.367,15.137
1533059196,15.137,12.207
1533059196,27.832,15.137
1533059196,44.922,16.602
1533059196,36.133,18.066
1533059196,22.461,16.602
1533059196,19.043,16.602
1533059196,29.297,22.949
1533059196,41.016,22.949
1533059196,36.621,19.531
1533059196,32.715,19.043
1533059196,20.508,19.043
1533059196,18.555,16.602
1533059196,32.715,16.602
1533059196,30.762,19.043
1533059196,15.625,20.02
1533059196,0,19.043
1533059196,4.883,16.602
1533059196,22.949,17.09
1533059196,23.438,17.578
1533059196,16.602,16.113
1533059196,9.766,13.184
1533059196,12.695,10.254
1533059196,31.25,12.695
1533059196,31.738,14.16
1533059196,21.973,15.625
1533059196,14.16,15.137
1533059196,14.648,13.672
1533059196,30.762,17.09
1533059196,39.551,21.484
1533059196,31.738,21.484
1533059196,13.672,18.066
1533059196,6.836,16.113
1533059196,26.367,16.113
1533059196,34.668,15.625
1533059196,22.949,17.578
1533059196,10.742,18.066
1533059196,6.348,13.672
1533059196,22.949,12.207
1533059196,33.691,16.113
1533059196,28.809,18.555
1533059196,26.367,20.508
1533059196,23.926,20.508
1533059196,33.691,15.625
1533059196,43.945,12.695
1533059196,35.645,12.695
1533059196,22.949,11.23
1533059196,17.578,14.648
1533059196,20.996,18.555
1533059196,26.367,17.578
1533059196,17.09,15.137
1533059196,9.766,14.16
1533059196,6.836,15.625
1533059196,10.254,14.648
1533059196,23.438,13.672
1533059196,23.438,14.16
1533059196,17.578,12.695
1533059196,14.16,13.184
1533059196,22.461,16.602
1533059196,37.598,17.578
1533059196,36.621,19.531
1533059196,26.855,19.043
1533059196,17.578,18.066
1533059196,16.113,18.555
1533059196,30.273,17.09
1533059196,32.227,13.184
1533059196,24.414,14.16
1533059196,12.207,15.137
1533059196,3.906,13.184
1533059197,23.438,12.207
1533059197,37.598,14.648
1533059197,29.297,16.113
1533059197,14.648,13.184
1533059197,5.859,10.742
1533059197,13.672,12.695
1533059197,24.902,14.16
1533059197,23.926,12.695
1533059197,9.277,10.742
1533059197,1.465,9.277
1533059197,16.602,11.23
1533059197,28.809,9.277
1533059197,27.832,4.883
1533059197,24.902,3.906
1533059197,19.043,5.859
1533059197,33.203,8.301
1533059197,46.875,11.23
1533059197,41.016,14.16
1533059197,38.086,19.531
1533059197,27.344,20.02
1533059197,23.438,12.207
1533059197,36.133,8.301
1533059197,40.039,9.277
1533059197,38.086,10.742
1533059197,27.832,16.113
1533059197,28.809,19.043
1533059197,43.945,18.066
1533059197,39.551,18.555
1533059197,20.508,15.137
1533059197,5.371,9.766
1533059197,12.207,9.766
1533059197,31.738,11.719
1533059197,34.18,14.648
1533059197,25.879,16.602
1533059197,14.16,14.16
1533059197,12.695,10.742
1533059197,34.18,13.672
1533059197,41.016,18.555
1533059197,31.25,20.02
1533059197,19.043,18.555
1533059197,8.789,15.137
1533059197,24.414,9.766
1533059197,41.016,5.371
1533059197,33.691,8.301
1533059197,17.578,11.719
1533059197,9.766,12.695
1533059197,20.996,14.648
1533059197,22.949,9.277
1533059197,16.113,8.301
1533059197,6.348,8.301
1533059197,-1.465,7.324
1533059197,13.184,10.254
1533059197,25.391,13.184
1533059197,20.02,13.184
1533059197,11.719,11.719
1533059197,1.953,12.207
1533059197,14.16,13.184
1533059197,36.621,15.137
1533059197,36.133,19.531
1533059197,20.996,18.555
1533059197,2.441,15.137
1533059197,9.277,15.137
1533059197,35.645,17.578
1533059197,40.039,21.973
1533059197,34.668,21.973
1533059197,19.531,16.113
1533059197,13.672,10.742
1533059197,29.297,11.719
1533059197,33.203,9.277
1533059197,29.297,9.277
1533059197,19.531,14.648
1533059197,19.531,12.695
1533059197,30.273,10.254
1533059197,35.156,14.648
1533059197,28.32,19.043
1533059197,11.719,17.09
1533059197,10.742,16.602
1533059197,27.344,15.625
1533059197,31.25,12.695
1533059197,21.973,9.766
1533059197,12.695,12.207
1533059197,10.254,15.137
1533059197,25.391,14.648
1533059197,30.273,17.09
1533059197,16.602,18.066
1533059197,7.324,17.09
1533059197,5.859,16.113
1533059197,20.996,13.184
1533059197,33.203,14.16
1533059197,29.785,19.043
1533059197,21.484,19.043
1533059197,15.625,18.555
1533059197,28.32,18.066
1533059197,34.668,17.578
1533059197,28.809,17.578
1533059197,22.949,16.602
1533059197,15.625,17.09
1533059197,23.926,14.648
1533059197,35.156,11.719
1533059197,34.18,11.23
1533059197,29.297,12.695
1533059197,18.066,17.09
1533059197,19.043,20.996
1533059197,31.738,21.484
1533059197,25.879,21.484
1533059197,12.207,16.602
1533059197,4.395,11.719
1533059197,14.16,13.184
1533059197,28.809,8.789
1533059197,27.832,6.348
1533059197,19.043,7.324
1533059197,1.953,8.301
1533059197,0.977,10.254
1533059197,26.855,12.695
1533059197,34.668,14.16
1533059197,20.996,12.207
1533059197,8.301,8.789
1533059197,11.719,10.742
1533059197,30.273,15.625
1533059197,32.227,18.066
1533059197,25.391,15.137
1533059197,20.508,12.695
1533059197,8.789,16.113
1533059197,20.508,19.043
1533059197,29.785,19.531
1533059197,26.855,20.02
1533059197,21.973,17.578
1533059197,6.836,13.672
1533059197,17.09,14.16
1533059197,30.762,14.16
1533059197,23.438,13.184
1533059197,17.578,12.207
1533059197,12.207,13.672
1533059197,22.949,14.16
1533059197,32.715,14.648
1533059197,24.902,17.09
1533059197,19.531,18.066
1533059197,12.207,19.043
1533059197,19.043,18.555
1533059197,34.668,16.113
1533059197,31.25,14.648
1533059197,25.391,13.672
1533059197,17.578,13.672
1533059197,20.02,16.113
1533059197,38.574,18.066
1533059197,34.18,17.578
1533059197,22.461,18.066
1533059197,13.184,19.531
1533059197,12.207,19.531
1533059197,23.926,18.066
1533059197,16.602,17.578
1533059197,12.207,19.043
1533059197,8.789,18.555
1533059197,9.277,17.09
1533059197,28.809,15.625
1533059197,35.156,16.113
1533059197,28.809,17.578
1533059197,18.066,16.602
1533059197,11.23,17.09
1533059197,24.414,13.184
1533059197,28.809,8.789
1533059197,20.02,8.789
1533059197,10.254,8.789
1533059197,1.465,12.695
1533059197,12.207,16.113
1533059197,20.508,11.23
1533059197,16.113,6.348
1533059197,4.883,8.301
1533059197,-3.906,12.695
1533059197,11.23,14.648
1533059197,25.391,14.16
1533059197,24.414,14.648
1533059197,21.484,14.648
1533059197,12.695,17.09
1533059197,22.461,19.531
1533059197,41.016,20.996
1533059197,37.598,22.949
1533059197,29.785,23.438
1533059197,20.508,21.973
1533059197,27.832,21.484
1533059197,41.016,24.414
1533059197,35.645,24.902
1533059197,33.203,25.391
1533059197,28.809,26.367
1533059197,31.25,23.926
1533059197,43.457,23.438
1533059197,40.039,23.438
1533059197,27.344,20.996
1533059197,3.906,17.09
1533059197,1.465,18.066
1533059197,21.484,18.555
1533059197,24.902,17.09
1533059197,21.484,19.531
1533059197,9.277,19.531
1533059197,7.812,19.043
1533059197,24.414,20.508
1533059197,29.785,19.043
1533059197,21.484,16.602
1533059197,10.742,16.602
1533059197,8.301,18.066
1533059197,29.297,19.043
1533059197,41.504,20.508
1533059197,29.297,17.09
1533059197,13.672,13.184
1533059197,9.766,12.695
1533059197,29.785,16.602
1533059197,34.18,21.484
1533059197,19.043,19.531
1533059197,12.207,12.207
1533059197,12.207,12.207
1533059197,26.367,18.555
1533059197,29.785,19.043
1533059197,23.438,21.484
1533059197,14.648,21.484
1533059197,2.93,17.578
1533059197,15.625,17.09
1533059197,34.668,17.578
1533059197,37.109,19.531
1533059197,32.715,23.438
1533059197,17.09,21.973
1533059197,22.461,17.09
1533059197,35.645,14.16
1533059197,25.879,11.23
1533059197,13.184,5.859
1533059197,5.859,4.883
1533059197,13.672,7.812
1533059197,26.367,8.301
1533059197,18.066,9.277
1533059197,10.254,11.23
1533059197,-0.488,10.254
1533059197,-3.418,4.883
1533059197,17.578,4.395
1533059197,20.996,4.883
1533059197,14.648,6.836
1533059197,10.742,11.23
1533059197,10.254,13.672
1533059197,32.227,17.578
1533059197,47.363,21.484
1533059197,42.969,20.996
1533059197,36.133,20.996
1533059197,36.621,24.414
1533059197,51.758,25.879
1533059197,59.57,26.367
1533059197,49.316,24.414
1533059197,33.203,21.973
1533059197,28.32,19.531
1533059197,40.527,17.09
1533059197,44.434,19.043
1533059197,36.621,22.949
1533059197,19.531,23.438
1533059197,1.953,20.996
1533059197,13.184,18.555
1533059197,25.879,17.578
1533059197,20.508,18.555
1533059197,12.695,20.508
1533059197,6.836,19.531
1533059198,13.672,17.578
1533059198,20.996,19.531
1533059198,13.184,23.438
1533059198,1.465,20.02
1533059198,-10.254,17.09
1533059198,-6.348,15.625
1533059198,11.719,11.719
1533059198,12.207,10.254
1533059198,4.395,13.184
1533059198,3.418,17.578
1533059198,13.672,20.996
1533059198,27.832,22.461
1533059198,20.996,21.973
1533059198,14.16,19.531
1533059198,8.789,19.531
1533059198,9.766,20.996
1533059198,29.297,17.578
1533059198,33.203,16.602
1533059198,23.438,18.066
1533059198,8.301,18.066
1533059198,4.883,17.578
1533059198,20.508,15.137
1533059198,24.902,18.066
1533059198,17.09,23.926
1533059198,9.277,23.438
1533059198,2.441,17.09
1533059198,15.625,14.16
1533059198,23.438,18.555
1533059198,16.602,16.113
1533059198,3.418,12.695
1533059198,-1.465,14.648
1533059198,16.602,11.23
1533059198,25.391,8.301
1533059198,22.949,10.742
1533059198,18.555,11.719
1533059198,5.371,13.672
1533059198,7.324,16.113
1533059198,14.648,13.184
1533059198,11.23,13.184
1533059198,4.395,12.695
1533059198,-6.348,13.672
1533059198,2.441,14.648
1533059198,14.648,15.137
1533059198,12.207,16.602
1533059198,8.789,13.672
1533059198,4.883,11.719
1533059198,15.137,14.16
1533059198,24.902,16.113
1533059198,22.949,18.066
1533059198,20.02,20.996
1533059198,5.859,19.043
1533059198,4.883,16.113
1533059198,27.344,18.555
1533059198,34.668,20.02
1533059198,28.32,20.02
1533059198,18.066,23.926
1533059198,18.555,23.438
1533059198,30.762,20.996
1533059198,33.691,20.02
1533059198,31.738,18.555
1533059198,19.531,19.043
1533059198,11.23,19.043
1533059198,28.809,20.996
1533059198,34.668,20.996
1533059198,20.508,19.531
1533059198,7.812,16.602
1533059198,5.859,14.16
1533059198,25.391,12.695
1533059198,35.156,15.625
1533059198,21.973,18.066
1533059198,6.348,15.625
1533059198,1.465,12.695
1533059198,20.996,12.695
1533059198,28.809,15.625
1533059198,20.02,15.625
1533059198,16.113,12.695
1533059198,9.766,11.719
1533059198,19.531,10.254
1533059198,30.273,11.719
1533059198,26.855,15.625
1533059198,21.484,14.16
1533059198,7.324,10.742
1533059198,10.742,9.277
1533059198,27.832,10.254
1533059198,25.391,9.766
1533059198,12.695,10.742
1533059198,2.441,13.672
1533059198,16.113,16.602
1533059198,33.203,18.066
1533059198,26.855,16.113
1533059198,22.949,13.184
1533059198,16.113,14.648
1533059198,18.066,16.113
1533059198,33.203,16.602
1533059198,28.809,13.184
1533059198,22.949,10.254
1533059198,20.508,12.207
1533059198,20.996,11.719
1533059198,33.691,16.113
1533059198,34.668,18.066
1533059198,25.879,18.555
1533059198,12.207,19.043
1533059198,4.883,15.625
1533059198,19.043,13.184
1533059198,30.273,17.578
1533059198,20.996,20.996
1533059198,2.93,15.625
1533059198,-2.93,12.695
1533059198,16.602,13.672
1533059198,23.438,17.578
1533059198,11.23,19.043
1533059198,5.371,19.043
1533059198,4.395,18.555
1533059198,22.461,18.555
1533059198,29.785,17.09
1533059198,17.09,15.625
1533059198,14.16,15.137
1533059198,9.766,16.602
1533059198,15.137,18.555
1533059198,27.832,19.043
1533059198,27.344,22.461
1533059198,23.926,26.367
1533059198,13.184,24.902
1533059198,14.16,23.438
1533059198,24.414,22.461
1533059198,24.902,21.484
1533059198,18.066,19.531
1533059198,4.883,17.578
1533059198,12.207,15.137
1533059198,27.344,15.137
1533059198,23.926,18.555
1533059198,17.578,18.555
1533059198,11.23,19.531
1533059198,16.602,20.02
1533059198,33.691,17.09
1533059198,28.809,16.113
1533059198,16.113,17.09
1533059198,9.766,18.066
1533059198,4.883,14.648
1533059198,20.996,16.602
1533059198,31.25,20.02
1533059198,24.902,18.066
1533059198,11.719,20.02
1533059198,6.836,23.438
1533059198,25.391,21.484
1533059198,30.762,20.508
1533059198,24.902,18.555
1533059198,20.02,14.648
1533059198,13.672,16.113
1533059198,27.344,20.02
1533059198,36.621,18.066
1533059198,29.785,14.648
1533059198,17.578,15.137
1533059198,13.184,18.555
1533059198,27.344,19.531
1533059198,34.668,19.531
1533059198,29.785,18.555
1533059198,19.043,11.719
1533059198,6.836,10.254
1533059198,19.043,15.625
1533059198,34.18,20.02
1533059198,27.832,20.02
1533059198,14.16,17.578
1533059198,5.371,19.531
1533059198,15.625,21.973
1533059198,34.668,22.461
1533059198,32.715,21.484
1533059198,21.973,19.043
1533059198,13.672,16.602
1533059198,28.809,17.09
1533059198,52.734,20.996
1533059198,42.969,22.949
1533059198,30.273,18.066
1533059198,19.043,17.09
1533059198,16.602,21.973
1533059198,35.645,21.973
1533059198,39.551,22.461
1533059198,25.879,21.484
1533059198,11.23,18.555
1533059198,9.766,17.578
1533059198,27.344,17.09
1533059198,32.227,17.578
1533059198,24.902,17.578
1533059198,16.113,21.484
1533059198,20.02,25.391
1533059198,30.762,21.973
1533059198,28.809,19.043
1533059198,29.297,17.578
1533059198,26.367,17.578
1533059198,18.066,20.996
1533059198,30.762,17.09
1533059198,40.527,12.695
1533059198,32.715,13.672
1533059198,21.484,17.09
1533059198,15.137,17.578
1533059198,34.18,16.113
1533059198,42.969,18.555
1533059198,32.227,19.043
1533059198,24.414,16.113
1533059198,17.578,18.555
1533059198,39.551,22.949
1533059198,61.035,25.391
1533059198,54.199,26.367
1533059198,42.969,23.926
1533059198,29.785,24.414
1533059198,35.645,28.32
1533059198,47.363,30.762
1533059198,39.551,27.344
1533059198,31.25,22.949
1533059198,24.902,24.902
1533059198,27.832,29.297
1533059198,37.109,26.367
1533059198,34.668,23.926
1533059198,29.297,24.414
1533059198,17.09,22.461
1533059198,20.508,20.996
1533059198,37.598,20.996
1533059198,35.645,21.973
1533059198,33.203,25.391
1533059198,27.344,29.297
1533059198,25.879,29.297
1533059198,41.504,26.855
1533059198,47.363,30.273
1533059198,45.41,32.715
1533059198,32.227,33.691
1533059198,23.438,36.133
1533059198,40.039,35.156
1533059198,46.875,33.691
1533059198,41.016,30.273
1533059198,33.691,27.832
1533059198,24.902,27.344
1533059198,36.133,27.344
1533059198,43.457,31.25
1533059198,38.086,31.25
1533059198,30.273,28.809
1533059198,21.973,29.297
1533059198,38.086,30.762
1533059198,44.922,28.32
1533059198,34.668,23.926
1533059198,28.32,24.414
1533059198,18.066,22.949
1533059198,28.809,23.438
1533059198,44.434,25.879
1533059198,42.48,25.879
1533059198,36.133,22.461
1533059198,16.602,19.043
1533059198,17.578,19.531
1533059198,33.203,22.949
1533059198,28.32,22.949
1533059198,22.949,20.508
1533059198,15.625,21.484
1533059198,18.066,22.461
1533059198,31.25,21.973
1533059198,30.273,19.043
1533059198,24.902,16.113
1533059198,18.555,17.578
1533059199,19.531,17.578
1533059199,34.668,17.09
1533059199,37.109,16.602
1533059199,28.809,12.207
1533059199,18.066,12.207
1533059199,15.137,12.695
1533059199,36.133,12.695
1533059199,42.969,16.602
1533059199,26.855,14.648
1533059199,15.625,13.184
1533059199,14.648,18.066
1533059199,28.32,18.066
1533059199,28.32,13.672
1533059199,20.02,12.207
1533059199,13.672,11.719
1533059199,6.836,9.277
1533059199,23.926,6.348
1533059199,29.785,5.859
1533059199,23.926,5.371
1533059199,21.973,5.371
1533059199,17.09,10.254
1533059199,31.738,10.254
1533059199,38.086,9.766
1533059199,36.133,11.719
1533059199,34.668,12.207
1533059199,19.043,10.742
1533059199,28.809,13.184
1533059199,45.41,17.578
1533059199,39.551,18.555
1533059199,31.738,16.602
1533059199,18.066,14.16
1533059199,20.996,13.184
1533059199,39.062,15.625
1533059199,37.109,16.602
1533059199,27.344,18.066
1533059199,19.531,21.973
1533059199,24.902,23.438
1533059199,37.598,20.02
1533059199,36.621,19.531
1533059199,29.297,18.555
1533059199,21.484,21.484
1533059199,24.414,22.949
1533059199,39.062,21.973
1533059199,35.156,22.461
1533059199,27.832,21.484
1533059199,23.438,23.438
1533059199,25.879,24.902
1533059199,42.969,22.949
1533059199,45.898,21.484
1533059199,34.18,21.484
1533059199,18.555,22.461
1533059199,14.16,22.949
1533059199,28.809,23.926
1533059199,35.156,22.461
1533059199,30.273,19.043
1533059199,20.996,19.043
1533059199,15.625,22.461
1533059199,31.25,25.391
1533059199,36.133,29.297
1533059199,28.32,32.715
1533059199,17.09,28.32
1533059199,4.883,21.973
1533059199,18.555,19.043
1533059199,32.227,20.996
1533059199,28.32,25.391
1533059199,22.461,25.879
1533059199,15.137,26.367
1533059199,21.484,23.438
1533059199,31.25,16.602
1533059199,30.762,18.555
1533059199,20.02,19.531
1533059199,2.441,19.531
1533059199,11.719,20.996
1533059199,32.715,19.043
1533059199,34.18,17.09
1533059199,26.855,16.113
1533059199,10.742,20.02
1533059199,10.742,20.996
1533059199,26.367,18.066
1533059199,29.297,17.09
1533059199,26.367,16.113
1533059199,20.508,19.043
1533059199,20.02,24.414
1533059199,33.203,26.367
1533059199,37.109,24.902
1533059199,28.32,19.531
1533059199,13.672,18.066
1533059199,13.672,17.578
1533059199,29.297,18.555
1533059199,27.344,21.973
1533059199,25.391,21.973
1533059199,20.996,20.02
1533059199,15.137,20.996
1533059199,30.762,22.949
1533059199,37.109,22.949
1533059199,32.227,20.508
1533059199,23.438,20.508
1533059199,13.672,19.043
1533059199,21.973,18.066
1533059199,32.715,15.625
1533059199,27.344,15.625
1533059199,18.066,17.578
1533059199,11.719,13.672
1533059199,25.391,14.648
1533059199,41.016,21.973
1533059199,38.574,23.438
1533059199,29.785,21.484
1533059199,18.066,20.996
1533059199,22.461,16.602
1533059199,33.203,15.625
1533059199,31.25,17.09
1533059199,21.484,13.672
1533059199,6.348,14.648
1533059199,13.184,17.578
1533059199,32.227,18.066
1533059199,30.273,17.09
1533059199,25.391,16.602
1533059199,14.648,18.555
1533059199,18.555,17.09
1533059199,36.133,16.113
1533059199,29.785,18.066
1533059199,23.926,17.09
1533059199,20.02,18.066
1533059199,17.09,18.066
1533059199,25.391,14.648
1533059199,28.32,10.742
1533059199,26.855,9.277
1533059199,14.648,13.672
1533059199,6.836,17.578
1533059199,23.438,15.137
1533059199,31.25,15.137
1533059199,24.902,19.043
1533059199,16.602,21.973
1533059199,14.16,20.996
1533059199,26.367,18.555
1533059199,25.391,17.09
1533059199,19.531,15.625
1533059199,16.113,15.625
1533059199,8.789,16.113
1533059199,21.973,12.695
1533059199,33.203,13.184
1533059199,26.367,17.578
1533059199,20.02,18.555
1533059199,8.789,16.113
1533059199,19.043,13.672
1533059199,36.621,14.16
1533059199,32.715,16.602
1533059199,21.973,15.625
1533059199,13.184,15.625
1533059199,24.414,17.09
1533059199,40.039,17.09
1533059199,34.668,14.648
1533059199,20.996,10.254
1533059199,10.254,8.789
1533059199,18.066,11.23
1533059199,28.32,12.695
1533059199,24.902,15.137
1533059199,19.531,17.578
1533059199,10.254,16.602
1533059199,19.531,14.648
1533059199,40.039,16.113
1533059199,39.062,16.113
1533059199,34.668,13.184
1533059199,24.414,15.625
1533059199,19.043,16.602
1533059199,39.062,19.043
1533059199,45.898,23.926
1533059199,35.156,25.391
1533059199,21.973,26.855
1533059199,16.602,23.926
1533059199,30.762,17.09
1533059199,35.645,17.09
1533059199,28.809,19.531
1533059199,22.949,17.09
1533059199,19.043,16.602
1533059199,26.367,19.531
1533059199,32.715,19.531
1533059199,29.297,19.531
1533059199,20.02,20.508
1533059199,11.23,21.484
1533059199,21.973,19.531
1533059199,26.855,17.09
1533059199,22.949,16.602
1533059199,22.461,18.555
1533059199,10.742,17.578
1533059199,19.531,16.602
1533059199,31.25,15.625
1533059199,23.926,11.23
1533059199,17.09,12.207
1533059199,7.812,15.137
1533059199,13.672,18.066
1533059199,30.273,23.438
1533059199,26.367,24.414
1533059199,16.113,20.996
1533059199,7.324,20.508
1533059199,10.742,18.555
1533059199,22.949,18.066
1533059199,20.996,17.09
1533059199,17.09,15.625
1533059199,5.859,18.555
1533059199,10.742,22.949
1533059199,26.855,22.461
1533059199,27.832,22.949
1533059199,26.855,26.367
1533059199,16.113,27.832
1533059199,13.184,24.414
1533059199,32.715,23.926
1533059199,37.598,29.297
1533059199,32.715,31.25
1533059199,21.484,28.32
1533059199,10.742,28.32
1533059199,24.414,28.809
1533059199,31.738,27.832
1533059199,25.391,28.32
1533059199,12.695,26.367
1533059199,9.277,21.484
1533059199,20.02,20.996
1533059199,24.414,20.996
1533059199,22.461,20.508
1533059199,17.09,20.996
1533059199,15.137,24.414
1533059199,27.344,28.32
1533059199,34.668,31.25
1533059199,29.297,29.785
1533059199,17.578,23.438
1533059199,8.301,22.949
1533059199,20.996,23.438
1533059199,41.016,23.438
1533059199,38.574,25.879
1533059199,23.926,25.879
1533059199,13.184,25.391
1533059199,23.438,22.461
1533059199,40.039,21.484
1533059199,37.109,28.32
1533059199,31.25,30.273
1533059199,21.973,28.32
1533059199,22.949,26.367
1533059199,32.227,20.996
1533059199,32.715,20.02
1533059199,24.902,20.02
1533059199,11.719,18.555
1533059199,17.09,17.578
1533059199,33.691,17.09
1533059199,33.203,19.043
1533059199,23.438,20.02
1533059199,11.719,24.902
1533059199,9.277,25.879
1533059199,21.973,21.973
1533059199,22.949,17.09
1533059199,18.066,15.625
1533059199,11.23,17.09
1533059199,10.254,14.648
1533059199,29.297,12.695
1533059199,38.086,15.137
1533059199,29.785,18.555
1533059199,22.461,18.066
1533059200,19.531,16.602
1533059200,26.367,15.625
1533059200,27.832,16.602
1533059200,19.531,16.113
1533059200,9.766,15.137
1533059200,0,17.578
1533059200,10.742,16.602
1533059200,22.949,14.16
1533059200,22.949,16.602
1533059200,24.414,21.973
1533059200,19.043,22.949
1533059200,27.344,21.484
1533059200,38.574,22.461
1533059200,36.133,22.461
1533059200,30.273,24.414
1533059200,16.113,21.973
1533059200,20.508,17.578
1533059200,33.691,19.043
1533059200,24.902,19.531
1533059200,12.207,19.531
1533059200,4.395,22.949
1533059200,12.695,25.391
1533059200,33.203,24.902
1533059200,33.203,24.414
1533059200,19.531,18.066
1533059200,7.812,12.207
1533059200,12.207,14.16
1533059200,25.879,19.043
1533059200,26.367,20.02
1533059200,24.414,19.043
1533059200,17.09,17.09
1533059200,16.602,19.531
1533059200,34.18,19.531
1533059200,41.016,18.555
1533059200,33.691,22.461
1533059200,25.879,22.949
1533059200,24.414,22.461
1533059200,34.18,23.926
1533059200,36.621,24.902
1533059200,30.762,24.414
1533059200,21.484,20.996
1533059200,20.02,19.531
1533059200,36.621,19.043
1533059200,37.598,18.066
1533059200,24.414,15.137
1533059200,16.602,15.137
1533059200,3.906,12.207
1533059200,7.324,8.789
1533059200,18.555,6.836
1533059200,18.066,6.836
1533059200,11.23,9.766
1533059200,1.465,12.207
1533059200,6.348,8.301
1533059200,19.531,7.812
1533059200,16.602,9.766
1533059200,3.906,11.23
1533059200,-8.301,11.719
1533059200,4.395,9.766
1533059200,26.367,9.766
1533059200,22.461,11.719
1533059200,11.23,18.555
1533059200,3.418,22.461
1533059200,11.719,23.926
1533059200,28.809,23.438
1533059200,30.273,22.461
1533059200,23.926,24.414
1533059200,8.301,22.461
1533059200,12.207,21.973
1533059200,27.832,24.414
1533059200,21.973,22.461
1533059200,11.719,20.02
1533059200,4.883,19.043
1533059200,9.277,19.043
1533059200,25.879,16.113
1533059200,30.273,15.625
1533059200,23.926,18.555
1533059200,10.254,17.578
1533059200,6.348,20.02
1533059200,29.785,20.02
1533059200,37.109,19.043
1533059200,23.438,20.996
1533059200,17.578,22.949
1533059200,11.719,20.996
1533059200,23.926,12.695
1533059200,33.691,10.742
1533059200,23.926,15.137
1533059200,10.254,17.09
1533059200,0,17.09
1533059200,11.719,13.672
1533059200,28.809,13.672
1533059200,28.809,14.16
1533059200,20.02,15.137
1533059200,10.742,16.602
1533059200,26.855,16.113
1533059200,38.574,11.719
1533059200,25.391,6.836
1533059200,13.184,9.277
1533059200,5.859,18.066
1533059200,18.555,23.926
1533059200,33.203,21.973
1533059200,25.879,18.555
1533059200,13.184,15.137
1533059200,4.395,13.672
1533059200,14.16,16.113
1533059200,28.32,16.602
1533059200,26.855,16.113
1533059200,17.09,15.625
1533059200,8.301,17.09
1533059200,15.625,19.043
1533059200,31.25,18.555
1533059200,30.273,18.066
1533059200,20.996,18.066
1533059200,12.207,17.09
1533059200,13.672,12.695
1533059200,30.273,8.301
1533059200,37.598,11.719
1533059200,30.273,18.555
1533059200,20.996,25.391
1533059200,17.09,28.809
1533059200,30.762,28.32
1533059200,35.645,24.902
1533059200,29.297,20.996
1533059200,21.973,23.926
1533059200,16.602,24.414
1533059200,34.18,23.926
1533059200,41.504,24.414
1533059200,36.621,19.531
1533059200,34.668,15.137
1533059200,25.391,17.09
1533059200,26.367,20.02
1533059200,34.18,20.02
1533059200,34.668,22.461
1533059200,26.855,24.902
1533059200,13.672,25.879
1533059200,19.531,24.902
1533059200,35.645,25.879
1533059200,31.738,22.949
1533059200,20.02,19.531
1533059200,8.789,21.973
1533059200,9.766,20.508
1533059200,22.461,20.02
1533059200,23.926,19.531
1533059200,13.672,17.578
1533059200,6.836,16.602
1533059200,19.531,15.625
1533059200,39.551,21.484
1533059200,36.133,25.391
1533059200,23.926,22.461
1533059200,8.301,18.555
1533059200,6.836,13.184
1533059200,35.645,15.137
1533059200,49.316,23.926
1533059200,44.922,28.32
1533059200,33.691,24.902
1533059200,35.645,22.461
1533059200,55.664,19.043
1533059200,53.223,18.066
1533059200,41.016,22.461
1533059200,23.926,24.414
1533059200,12.207,25.391
1533059200,26.367,23.438
1533059200,32.227,23.438
1533059200,18.555,23.926
1533059200,-1.465,19.043
1533059200,-6.836,18.066
1533059200,12.207,15.625
1533059200,22.461,15.137
1533059200,22.461,20.02
1533059200,16.602,19.531
1533059200,3.906,19.043
1533059200,17.09,18.066
1533059200,36.133,18.555
1533059200,32.715,21.973
1533059200,22.461,15.625
1533059200,12.207,12.207
1533059200,22.949,19.043
1533059200,37.598,22.949
1533059200,31.25,20.996
1533059200,17.09,21.973
1533059200,7.812,22.949
1533059200,17.09,22.461
1533059200,23.438,23.926
1533059200,19.043,24.414
1533059200,17.578,24.902
1533059200,5.859,20.996
1533059200,10.742,20.508
1533059200,32.227,20.508
1533059200,36.133,24.414
1533059200,20.508,23.438
1533059200,7.324,21.973
1533059200,12.695,21.973
1533059200,33.203,18.066
1533059200,38.086,19.043
1533059200,27.832,24.414
1533059200,14.16,27.832
1533059200,7.812,28.809
1533059200,26.855,29.785
1533059200,36.621,26.367
1533059200,30.762,23.438
1533059200,24.902,22.949
1533059200,19.043,21.484
1533059200,31.25,19.531
1533059200,41.992,17.578
1533059200,36.621,20.508
1533059200,29.297,28.32
1533059200,21.973,30.762
1533059200,30.273,28.809
1533059200,41.504,28.809
1533059200,40.527,26.367
1533059200,35.645,26.855
1533059200,28.809,26.855
1533059200,32.227,22.461
1533059200,38.086,23.926
1533059200,40.527,26.855
1533059200,37.109,25.391
1533059200,27.344,25.391
1533059200,33.691,25.879
1533059200,40.527,27.832
1533059200,33.203,28.809
1533059200,22.949,24.902
1533059200,5.371,20.996
1533059200,11.23,18.066
1533059200,31.25,11.23
1533059200,25.879,9.277
1533059200,11.719,10.254
1533059200,4.395,10.742
1533059200,7.812,12.207
1533059200,22.461,12.695
1533059200,25.391,14.16
1533059200,18.555,13.184
1533059200,1.953,10.742
1533059200,2.441,10.254
1533059200,23.438,9.766
1533059200,28.32,11.719
1533059200,21.484,17.09
1533059200,9.766,17.09
1533059200,7.812,13.672
1533059200,20.508,11.719
1533059200,25.391,13.672
1533059200,20.508,16.113
1533059200,10.254,14.16
1533059200,6.836,13.184
1533059200,21.484,13.672
1533059200,31.738,15.625
1533059200,25.879,15.137
1533059200,10.742,15.137
1533059200,0,14.16
1533059200,17.578,13.184
1533059200,29.785,15.625
1533059200,25.879,14.16
1533059200,18.066,12.207
1533059200,8.301,17.09
1533059200,24.414,17.09
1533059200,37.598,13.672
1533059200,28.32,16.113
1533059200,18.066,18.066
1533059201,7.324,18.066
1533059201,17.09,19.531
1533059201,31.738,20.996
1533059201,29.785,21.973
1533059201,23.438,20.996
1533059201,8.301,21.973
1533059201,13.184,27.344
1533059201,32.227,27.344
1533059201,25.391,22.949
1533059201,11.23,21.973
1533059201,1.953,21.484
1533059201,11.719,20.508
1533059201,34.18,22.461
1533059201,31.25,20.996
1533059201,18.066,18.555
1533059201,12.207,21.973
1533059201,17.09,22.461
1533059201,34.18,20.996
1533059201,38.574,20.508
1533059201,28.32,19.531
1533059201,18.066,21.484
1533059201,18.555,22.461
1533059201,32.715,22.461
1533059201,33.691,21.484
1533059201,26.855,18.555
1533059201,20.996,18.066
1533059201,9.277,13.672
1533059201,14.16,9.277
1533059201,25.391,10.742
1533059201,18.066,15.137
1533059201,2.93,16.602
1533059201,-4.883,15.137
1533059201,6.836,13.672
1533059201,11.719,13.184
1533059201,-2.93,11.719
1533059201,-6.836,15.137
1533059201,-7.324,15.625
1533059201,0.977,16.602
1533059201,18.066,19.531
1533059201,24.414,17.578
1533059201,19.043,18.066
1533059201,9.277,21.484
1533059201,23.926,21.973
1533059201,42.48,21.973
1533059201,38.086,21.973
1533059201,27.832,20.02
1533059201,16.113,20.02
1533059201,19.043,21.973
1533059201,31.738,23.438
1533059201,33.203,20.508
1533059201,25.391,16.113
1533059201,8.789,15.625
1533059201,9.766,16.113
1533059201,26.855,17.578
1533059201,22.461,18.555
1533059201,6.348,17.578
1533059201,-5.859,20.508
1533059201,-5.859,23.438
1533059201,12.207,26.855
1533059201,20.02,28.809
1533059201,17.09,24.902
1533059201,7.812,19.531
1533059201,6.348,20.508
1533059201,27.344,21.484
1533059201,39.062,20.508
1533059201,41.016,22.461
1533059201,34.668,20.996
1533059201,32.227,19.043
1533059201,48.828,19.043
1533059201,52.734,17.09
1533059201,46.387,17.578
1533059201,41.504,20.02
1533059201,31.738,20.02
1533059201,35.645,16.602
1533059201,38.574,14.648
1533059201,28.809,13.184
1533059201,16.113,13.672
1533059201,2.93,13.672
1533059201,11.719,12.207
1533059201,26.367,15.625
1533059201,19.531,15.137
1533059201,9.766,13.184
1533059201,5.371,15.137
1533059201,16.113,13.672
1533059201,35.645,11.719
1533059201,37.598,10.742
1533059201,30.273,10.742
1533059201,20.996,13.184
1533059201,31.738,15.137
1533059201,47.363,15.137
1533059201,40.527,14.16
1533059201,35.645,13.672
1533059201,26.367,11.719
1533059201,28.809,11.719
1533059201,43.945,13.184
1533059201,45.898,15.625
1533059201,34.18,16.113
1533059201,17.578,19.043
1533059201,12.695,20.508
1533059201,22.461,16.113
1533059201,26.855,16.602
1533059201,20.996,18.066
1533059201,9.277,16.602
1533059201,9.766,18.555
1533059201,25.391,17.578
1533059201,28.32,14.16
1533059201,21.973,10.742
1533059201,14.648,9.766
1533059201,10.742,15.137
1533059201,26.855,16.113
1533059201,37.109,12.695
1533059201,33.203,16.113
1533059201,31.738,20.996
1533059201,26.367,20.508
1533059201,34.668,20.02
1533059201,47.363,19.531
1533059201,42.48,19.043
1533059201,32.227,16.113
1533059201,23.926,16.602
1533059201,35.156,20.996
1533059201,44.434,20.508
1533059201,37.109,19.531
1533059201,29.785,20.508
1533059201,15.137,20.996
1533059201,21.973,20.02
1533059201,42.48,18.555
1533059201,41.016,18.066
1533059201,28.809,17.09
1533059201,18.555,17.09
1533059201,26.367,18.555
1533059201,50.293,19.043
1533059201,49.805,21.484
1533059201,34.18,19.043
1533059201,22.461,17.09
1533059201,22.949,20.02
1533059201,35.156,21.484
1533059201,39.062,21.484
1533059201,30.273,20.996
1533059201,19.043,18.555
1533059201,20.02,17.578
1533059201,32.227,21.484
1533059201,33.691,22.461
1533059201,25.879,23.438
1533059201,18.555,27.344
1533059201,17.578,26.855
1533059201,28.809,27.344
1533059201,33.691,27.832
1533059201,32.715,28.32
1533059201,24.902,28.809
1533059201,14.16,27.344
1533059201,27.344,24.414
1533059201,38.574,20.996
1533059201,34.668,21.484
1533059201,26.367,22.949
1533059201,15.625,20.996
1533059201,27.832,21.973
1533059201,38.574,27.832
1533059201,33.691,26.855
1533059201,29.297,24.414
1533059201,18.066,23.926
1533059201,23.438,21.973
1533059201,38.574,22.949
1533059201,40.039,27.344
1533059201,32.227,30.273
1533059201,18.066,28.809
1533059201,18.555,29.785
1533059201,41.992,32.715
1533059201,49.316,30.762
1533059201,32.715,28.32
1533059201,17.09,33.203
1533059201,20.508,32.715
1533059201,37.109,29.785
1533059201,39.062,28.809
1533059201,32.227,28.809
1533059201,23.438,28.809
1533059201,24.414,27.832
1533059201,36.133,26.367
1533059201,35.645,25.879
1533059201,32.227,27.344
1533059201,20.02,27.344
1533059201,12.695,23.438
1533059201,26.855,20.508
1533059201,30.762,19.043
1533059201,21.484,20.508
1533059201,6.836,21.484
1533059201,4.395,17.578
1533059201,23.438,12.207
1533059201,24.414,12.207
1533059201,11.23,13.672
1533059201,0,15.137
1533059201,-2.93,19.531
1533059201,12.695,19.043
1533059201,23.438,16.602
1533059201,24.902,20.02
1533059201,20.508,23.438
1533059201,12.207,19.043
1533059201,22.949,15.625
1533059201,32.227,16.113
1533059201,26.855,19.531
1533059201,23.438,22.461
1533059201,19.531,22.461
1533059201,26.855,23.438
1533059201,37.109,23.926
1533059201,30.762,21.973
1533059201,20.996,22.461
1533059201,10.742,24.902
1533059201,14.648,26.367
1533059201,28.809,25.391
1533059201,27.832,23.926
1533059201,15.137,21.973
1533059201,7.324,22.949
1533059201,14.648,22.949
1533059201,30.762,20.508
1533059201,36.621,19.531
1533059201,31.25,19.531
1533059201,18.066,20.02
1533059201,17.578,19.043
1533059201,35.645,19.043
1533059201,40.039,20.02
1533059201,35.156,19.531
1533059201,26.367,20.996
1533059201,22.949,20.508
1533059201,34.18,18.066
1533059201,34.668,17.09
1533059201,25.879,20.02
1533059201,10.742,18.555
1533059201,3.418,17.578
1533059201,22.461,20.996
1533059201,31.738,19.531
1533059201,26.367,20.508
1533059201,16.602,21.973
1533059201,11.719,18.555
1533059201,26.855,15.625
1533059201,36.133,12.207
1533059201,31.25,11.23
1533059201,23.438,17.578
1533059201,17.578,23.438
1533059201,27.832,22.461
1533059201,38.086,22.461
1533059201,36.621,25.391
1533059201,23.438,24.902
1533059201,6.836,25.879
1533059201,15.625,26.855
1533059201,31.738,25.879
1533059201,30.762,25.879
1533059201,18.066,24.414
1533059201,7.324,23.438
1533059201,17.578,22.949
1533059201,29.297,25.879
1533059201,22.949,27.344
1533059201,16.113,22.461
1533059201,7.812,22.949
1533059201,9.277,26.367
1533059201,25.879,25.391
1533059201,27.832,22.949
1533059201,19.531,21.973
1533059202,15.625,21.973
1533059202,21.484,19.531
1533059202,34.668,18.555
1533059202,30.762,17.09
1533059202,22.949,17.578
1533059202,8.789,20.508
1533059202,7.324,20.02
1533059202,27.344,20.996
1533059202,30.273,22.461
1533059202,20.508,21.973
1533059202,12.695,26.855
1533059202,12.695,28.809
1533059202,26.855,21.973
1533059202,32.715,20.996
1533059202,27.832,21.484
1533059202,21.484,25.391
1533059202,12.207,26.367
1533059202,25.391,25.391
1533059202,40.039,27.344
1533059202,31.25,28.32
1533059202,16.602,29.297
1533059202,12.695,28.32
1533059202,22.461,22.949
1533059202,33.203,20.02
1533059202,31.738,21.484
1533059202,22.461,22.461
1533059202,8.301,22.949
1533059202,16.113,21.484
1533059202,36.621,20.996
1533059202,33.203,23.926
1533059202,14.16,23.926
1533059202,0.488,20.996
1533059202,12.695,18.555
1533059202,29.785,20.996
1533059202,26.367,21.973
1533059202,19.531,20.02
1533059202,13.184,20.02
1533059202,13.672,19.043
1533059202,26.367,18.066
1533059202,23.926,20.02
1533059202,19.043,18.555
1533059202,10.742,18.066
1533059202,7.812,20.996
1533059202,24.902,23.926
1533059202,31.25,23.438
1533059202,21.973,20.02
1533059202,10.254,25.391
1533059202,10.254,27.344
1533059202,30.762,25.391
1533059202,35.645,27.344
1533059202,23.438,29.297
1533059202,11.719,30.273
1533059202,10.742,29.297
1533059202,24.902,28.32
1533059202,28.809,28.809
1533059202,22.949,27.344
1533059202,10.254,25.391
1533059202,2.441,23.926
1533059202,19.531,24.902
1533059202,33.203,23.926
1533059202,22.949,21.973
1533059202,7.324,20.996
1533059202,1.465,20.996
1533059202,11.23,22.949
1533059202,22.461,22.461
1533059202,17.09,18.555
1533059202,1.465,16.113
1533059202,-6.836,17.09
1533059202,5.371,17.09
1533059202,21.973,17.578
1533059202,17.578,16.113
1533059202,7.812,14.16
1533059202,7.812,16.602
1533059202,14.16,17.09
1533059202,26.367,16.602
1533059202,28.32,16.602
1533059202,29.297,17.09
1533059202,25.879,17.578
1533059202,24.414,17.09
1533059202,37.109,18.555
1533059202,40.039,22.949
1533059202,31.738,24.414
1533059202,23.438,23.926
1533059202,23.926,25.391
1533059202,34.668,27.344
1533059202,33.691,26.367
1533059202,24.902,26.367
1533059202,13.672,26.367
1533059202,6.836,20.508
1533059202,25.879,17.578
1533059202,34.668,18.555
1533059202,27.344,18.555
1533059202,23.926,19.043
1533059202,20.02,16.602
1533059202,34.668,16.602
1533059202,52.246,20.508
1533059202,48.828,22.461
1533059202,34.668,23.438
1533059202,20.508,22.949
1533059202,24.414,19.531
1533059202,26.367,13.184
1533059202,18.066,9.766
1533059202,12.207,9.766
1533059202,4.883,8.789
1533059202,18.066,14.16
1533059202,30.762,18.555
1533059202,20.02,19.043
1533059202,14.16,19.531
1533059202,10.742,21.973
1533059202,23.438,23.926
1533059202,31.738,21.973
1533059202,21.484,20.508
1533059202,14.16,20.996
1533059202,6.836,22.461
1533059202,10.742,20.02
1533059202,25.879,21.973
1533059202,29.785,24.414
1533059202,20.996,24.414
1533059202,7.324,20.996
1533059202,13.184,20.996
1533059202,36.133,24.414
1533059202,40.039,26.367
1533059202,28.32,27.344
1533059202,16.602,26.855
1533059202,16.602,25.391
1533059202,31.25,23.438
1533059202,27.832,20.02
1533059202,12.207,17.578
1533059202,5.859,20.02
1533059202,7.324,20.508
1533059202,22.949,17.09
1533059202,29.297,20.508
1533059202,21.484,19.531
1533059202,14.16,15.625
1533059202,11.23,17.09
1533059202,22.461,18.066
1533059202,33.691,15.625
1533059202,36.133,15.625
1533059202,31.25,18.555
1533059202,21.973,19.531
1533059202,26.367,19.531
1533059202,34.18,17.09
1533059202,25.391,16.113
1533059202,13.672,16.113
1533059202,11.23,17.09
1533059202,20.996,17.09
1533059202,31.25,15.625
1533059202,27.344,19.043
1533059202,20.508,24.414
1533059202,15.625,22.461
1533059202,21.973,19.531
1533059202,37.109,20.996
1533059202,29.785,20.508
1533059202,19.531,20.996
1533059202,10.254,19.043
1533059202,15.137,19.043
1533059202,35.156,23.926
1533059202,40.527,23.926
1533059202,38.086,20.508
1533059202,32.227,20.996
1533059202,32.227,22.461
1533059202,45.41,25.391
1533059202,45.41,26.855
1533059202,32.715,24.902
1533059202,21.484,22.949
1533059202,17.09,24.902
1533059202,30.762,23.926
1533059202,32.715,21.484
1533059202,13.184,21.973
1533059202,5.859,23.926
1533059202,14.16,23.926
1533059202,30.762,22.461
1533059202,32.227,23.438
1533059202,23.438,23.438
1533059202,19.043,23.438
1533059202,20.508,23.926
1533059202,35.156,25.879
1533059202,47.363,27.344
1533059202,43.457,29.785
1533059202,31.738,29.297
1533059202,22.461,28.32
1533059202,33.203,27.832
1533059202,46.387,27.344
1533059202,36.621,28.32
1533059202,25.391,29.297
1533059202,25.879,31.738
1533059202,28.809,31.25
1533059202,30.273,29.297
1533059202,26.855,28.809
1533059202,19.531,30.273
1533059202,12.695,30.273
1533059202,19.043,26.855
1533059202,35.156,25.879
1533059202,35.645,29.785
1533059202,22.461,31.25
1533059202,6.348,28.32
1533059202,15.625,29.297
1533059202,37.109,29.297
1533059202,35.156,31.738
1533059202,24.414,30.762
1533059202,18.555,25.879
1533059202,24.414,25.391
1533059202,37.598,27.344
1533059202,34.668,27.344
1533059202,24.414,24.902
1533059202,12.695,25.391
1533059202,16.113,27.832
1533059202,29.785,26.367
1533059202,29.785,24.902
1533059202,23.926,22.949
1533059202,14.648,22.461
1533059202,10.254,20.02
1533059202,21.973,18.555
1533059202,30.273,20.508
1533059202,24.414,21.484
1533059202,6.836,21.973
1533059202,-1.465,19.531
1533059202,17.09,17.578
1533059202,27.832,19.531
1533059202,22.461,23.926
1533059202,18.066,27.344
1533059202,15.137,26.367
1533059202,24.414,22.949
1533059202,31.738,22.461
1533059202,27.344,21.973
1533059202,19.043,20.996
1533059202,12.207,21.973
1533059202,26.855,21.484
1533059202,38.086,20.02
1533059202,28.809,17.578
1533059202,19.531,17.09
1533059202,12.695,18.555
1533059202,26.367,18.555
1533059202,42.969,22.461
1533059202,36.133,24.414
1533059202,23.438,25.879
1533059202,9.766,28.32
1533059202,15.137,25.391
1533059202,29.785,23.438
1533059202,21.484,23.438
1533059202,14.648,24.414
1533059202,7.324,26.367
1533059202,5.371,26.855
1533059202,19.043,25.391
1533059202,25.391,23.926
1533059202,14.648,20.996
1533059202,0,22.949
1533059202,7.324,25.391
1533059202,26.855,20.02
1533059202,31.738,16.602
1533059202,28.32,19.531
1533059202,15.137,20.02
1533059202,11.719,20.508
1533059202,33.203,19.043
1533059202,40.039,18.066
1533059202,32.715,20.02
1533059203,23.926,20.02
1533059203,17.09,17.09
1533059203,32.227,16.602
1533059203,46.875,15.625
1533059203,43.457,14.648
1533059203,27.832,18.066
1533059203,12.695,17.09
1533059203,26.367,14.16
1533059203,38.086,13.184
1533059203,27.344,14.16
1533059203,16.602,15.625
1533059203,8.789,14.16
1533059203,15.625,11.719
1533059203,25.391,12.207
1533059203,18.555,12.695
1533059203,13.184,13.672
1533059203,7.812,13.184
1533059203,14.648,11.23
1533059203,33.203,13.672
1533059203,34.668,14.648
1533059203,28.32,17.578
1533059203,18.066,20.02
1533059203,18.555,17.09
1533059203,39.062,16.113
1533059203,45.898,19.531
1533059203,39.062,24.902
1533059203,30.273,24.414
1533059203,33.203,22.949
1533059203,47.363,19.531
1533059203,50.781,19.043
1533059203,38.086,20.508
1533059203,19.531,20.996
1533059203,15.137,20.996
1533059203,30.762,19.531
1533059203,35.156,19.531
1533059203,24.902,19.043
1533059203,11.719,17.578
1533059203,5.371,16.602
1533059203,20.996,16.602
1533059203,22.949,15.625
1533059203,12.695,16.602
1533059203,9.277,20.02
1533059203,3.906,20.02
1533059203,16.113,18.066
1533059203,30.273,19.531
1533059203,23.926,18.066
1533059203,14.16,16.113
1533059203,7.324,15.625
1533059203,14.648,15.625
1533059203,25.879,16.602
1533059203,25.879,15.625
1533059203,14.648,17.09
1533059203,4.883,17.09
1533059203,19.531,14.16
1533059203,38.574,15.625
1533059203,35.645,17.578
1533059203,31.738,13.184
1533059203,24.902,9.766
1533059203,24.414,9.277
1533059203,29.785,6.348
1533059203,25.879,7.812
1533059203,21.973,13.672
1533059203,9.277,12.695
1533059203,14.648,13.672
1533059203,33.691,13.672
1533059203,29.785,12.695
1533059203,17.09,12.207
1533059203,9.766,11.23
1533059203,16.602,14.16
1533059203,29.297,11.719
1533059203,25.879,11.23
1533059203,17.578,14.16
1533059203,8.789,13.672
1533059203,5.859,15.137
1533059203,23.438,19.043
1533059203,29.297,20.996
1533059203,22.949,22.461
1533059203,15.625,22.461
1533059203,6.348,21.973
1533059203,13.672,25.879
1533059203,21.484,24.414
1533059203,16.602,19.043
1533059203,5.371,20.02
1533059203,-3.906,20.508
1533059203,9.277,19.043
1533059203,18.555,20.996
1533059203,12.695,19.043
1533059203,9.277,15.137
1533059203,3.906,17.578
1533059203,9.766,16.602
1533059203,21.973,18.555
1533059203,22.461,23.926
1533059203,18.555,25.391
1533059203,11.719,29.297
1533059203,20.996,31.738
1533059203,40.527,30.273
1533059203,42.48,31.25
1533059203,37.598,31.25
1533059203,24.414,28.809
1533059203,26.367,25.879
1533059203,42.969,24.902
1533059203,41.016,21.484
1533059203,23.926,22.461
1533059203,6.348,25.391
1533059203,13.672,27.832
1533059203,31.25,28.809
1533059203,25.391,24.902
1533059203,10.742,21.973
1533059203,3.906,21.973
1533059203,7.324,23.438
1533059203,20.508,23.926
1533059203,19.043,24.902
1533059203,11.23,23.926
1533059203,3.418,21.484
1533059203,5.859,19.531
1533059203,25.879,20.02
1533059203,29.297,21.484
1533059203,21.484,21.484
1533059203,15.625,23.438
1533059203,12.695,22.949
1533059203,29.297,21.973
1533059203,41.016,20.508
1533059203,36.621,19.043
1533059203,33.203,19.531
1533059203,29.785,18.555
1533059203,41.992,17.578
1533059203,49.805,15.625
1533059203,42.969,13.672
1533059203,34.668,13.672
1533059203,25.879,14.648
1533059203,37.109,16.602
1533059203,46.387,16.602
1533059203,36.133,16.602
1533059203,25.391,16.602
1533059203,10.742,13.672
1533059203,17.578,12.207
1533059203,35.156,10.742
1533059203,30.762,10.254
1533059203,18.066,13.184
1533059203,9.277,17.578
1533059203,23.438,19.531
1533059203,44.434,15.625
1533059203,38.574,13.184
1533059203,32.227,14.16
1533059203,26.855,13.184
1533059203,28.809,11.719
1533059203,50.781,16.602
1533059203,58.105,20.508
1533059203,50.781,18.555
1533059203,32.715,19.043
1533059203,26.855,21.973
1533059203,45.898,23.438
1533059203,49.316,20.996
1533059203,38.086,20.02
1533059203,24.414,18.066
1533059203,16.602,16.113
1533059203,31.738,18.066
1533059203,36.621,19.531
1533059203,24.902,18.555
1533059203,11.23,19.043
1533059203,5.371,20.02
1533059203,21.973,20.02
1533059203,35.156,21.484
1533059203,25.879,19.531
1533059203,14.648,20.508
1533059203,15.137,22.949
1533059203,30.762,21.484
1533059203,39.062,22.949
1533059203,31.25,21.484
1533059203,23.438,17.09
1533059203,17.578,16.602
1533059203,23.926,15.625
1533059203,33.691,18.066
1533059203,29.785,20.996
1533059203,21.484,20.02
1533059203,10.254,18.066
1533059203,18.066,17.09
1533059203,34.18,20.02
1533059203,28.809,19.043
1533059203,16.602,18.066
1533059203,8.789,19.043
1533059203,14.16,19.043
1533059203,27.832,17.09
1533059203,23.926,18.555
1533059203,13.184,19.531
1533059203,5.859,20.02
1533059203,14.648,19.531
1533059203,36.133,19.531
1533059203,35.156,20.02
1533059203,25.879,20.02
1533059203,17.09,20.508
1533059203,16.602,19.043
1533059203,32.227,20.02
1533059203,36.621,17.578
1533059203,29.297,16.113
1533059203,13.672,20.02
1533059203,5.859,17.09
1533059203,20.508,14.16
1533059203,29.785,15.137
1533059203,22.949,14.16
1533059203,9.766,16.113
1533059203,1.465,19.043
1533059203,14.16,16.113
1533059203,23.926,12.207
1533059203,19.531,13.184
1533059203,13.672,16.113
1533059203,6.348,17.09
1533059203,19.531,18.555
1533059203,33.691,20.02
1533059203,24.414,20.996
1533059203,12.695,19.531
1533059203,2.441,19.043
1533059203,15.137,17.578
1533059203,29.785,15.625
1533059203,20.02,15.625
1533059203,14.648,17.09
1533059203,8.301,18.066
1533059203,16.113,17.09
1533059203,32.227,18.066
1533059203,28.32,16.113
1533059203,19.531,15.625
1533059203,12.207,16.602
1533059203,18.555,17.578
1533059203,37.109,20.02
1533059203,36.621,16.602
1533059203,27.344,15.625
1533059203,16.113,16.602
1533059203,16.602,15.625
1533059203,38.086,15.137
1533059203,38.574,17.578
1533059203,22.949,19.043
1533059203,12.695,21.484
1533059203,12.695,22.461
1533059203,32.227,20.02
1533059203,40.527,20.996
1533059203,35.645,19.531
1533059203,23.438,20.02
1533059203,12.695,23.926
1533059203,26.367,25.391
1533059203,33.203,27.832
1533059203,20.996,28.32
1533059203,12.207,28.809
1533059203,14.648,27.344
1533059203,36.621,25.879
1533059203,48.34,26.367
1533059203,36.621,25.879
1533059203,19.531,22.949
1533059203,13.184,21.484
1533059203,27.832,26.367
1533059203,32.715,27.832
1533059203,30.273,24.902
1533059203,23.926,25.879
1533059203,8.789,25.879
1533059203,16.602,22.461
1533059203,32.227,21.484
1533059203,29.297,23.926
1533059204,20.02,24.414
1533059204,11.23,23.438
1533059204,22.949,23.438
1533059204,37.598,21.973
1533059204,29.785,20.508
1533059204,24.414,21.973
1533059204,17.578,23.438
1533059204,18.066,24.414
1533059204,33.691,23.438
1533059204,34.668,21.973
1533059204,27.344,25.879
1533059204,18.066,26.855
1533059204,19.043,22.461
1533059204,37.109,24.902
1533059204,41.992,27.832
1533059204,33.203,27.832
1533059204,20.508,28.809
1533059204,20.996,24.414
1533059204,34.668,20.508
1533059204,37.598,21.973
1533059204,30.762,20.508
1533059204,20.996,20.02
1533059204,20.508,21.484
1533059204,35.156,22.949
1533059204,36.621,18.555
1533059204,27.344,16.602
1533059204,22.461,18.066
1533059204,26.855,20.508
1533059204,45.898,24.414
1533059204,51.758,26.367
1533059204,36.133,23.438
1533059204,20.508,18.555
1533059204,16.113,15.625
1533059204,30.762,13.184
1533059204,46.875,16.113
1533059204,41.504,22.461
1533059204,28.809,26.855
1533059204,22.949,27.344
1533059204,35.156,23.438
1533059204,47.363,21.484
1533059204,38.086,21.484
1533059204,28.32,21.484
1533059204,24.902,22.949
1533059204,30.762,19.531
1533059204,39.062,15.137
1533059204,32.227,15.625
1533059204,25.391,17.578
1533059204,17.578,21.973
1533059204,20.996,22.949
1533059204,35.156,20.996
1533059204,28.32,18.066
1533059204,18.066,18.555
1533059204,13.184,24.414
1533059204,15.625,23.926
1533059204,30.762,22.461
1533059204,32.715,24.414
1533059204,24.902,23.926
1533059204,19.043,23.438
1533059204,22.949,20.508
1533059204,39.551,19.531
1533059204,40.527,21.484
1533059204,36.133,21.973
1533059204,26.367,22.461
1533059204,19.531,21.973
1533059204,37.109,20.508
1533059204,40.039,19.043
1533059204,30.762,20.508
1533059204,20.996,23.926
1533059204,12.695,21.484
1533059204,27.832,21.484
1533059204,38.086,25.391
1533059204,29.785,26.855
1533059204,21.973,26.855
1533059204,17.578,23.438
1533059204,27.832,18.555
1533059204,33.691,19.531
1533059204,25.391,20.996
1533059204,19.043,18.066
1533059204,11.23,16.113
1533059204,21.973,19.531
1533059204,35.645,23.438
1533059204,32.227,21.484
1533059204,22.949,21.484
1533059204,10.742,20.996
1533059204,23.438,19.531
1533059204,42.48,17.09
1533059204,40.039,17.578
1533059204,35.156,21.484
1533059204,28.809,17.578
1533059204,30.762,16.113
1533059204,44.922,18.555
1533059204,42.969,20.02
1533059204,38.086,21.484
1533059204,29.785,22.461
1533059204,21.484,18.066
1533059204,33.691,13.672
1533059204,34.18,12.695
1533059204,22.461,14.16
1533059204,11.719,15.137
1533059204,7.812,14.16
1533059204,26.855,14.16
1533059204,33.203,14.648
1533059204,25.879,16.113
1533059204,17.09,19.043
1533059204,13.184,18.066
1533059204,26.855,14.648
1533059204,32.715,15.625
1533059204,29.297,19.043
1533059204,20.508,19.531
1533059204,13.184,18.066
1533059204,23.926,17.09
1533059204,27.832,16.602
1533059204,19.043,17.578
1533059204,12.207,19.043
1533059204,7.324,19.043
1533059204,18.555,18.555
1533059204,32.227,20.02
1533059204,28.32,25.391
1533059204,18.555,26.855
1533059204,8.789,24.902
1533059204,23.926,23.926
1533059204,38.574,21.973
1533059204,29.785,20.996
1533059204,20.996,25.879
1533059204,5.859,30.273
1533059204,14.16,24.414
1533059204,31.25,19.531
1533059204,22.461,20.508
1533059204,16.113,22.461
1533059204,14.648,25.879
1533059204,17.09,24.414
1533059204,28.32,21.973
1533059204,28.809,23.438
1533059204,20.996,25.391
1533059204,4.883,22.461
1533059204,-1.953,18.555
1533059204,18.555,15.625
1533059204,19.043,13.184
1533059204,6.836,14.648
1533059204,1.465,16.113
1533059204,-0.977,11.23
1533059204,15.137,11.719
1533059204,21.484,15.625
1533059204,18.066,18.066
1533059204,13.672,18.555
1533059204,9.277,18.066
1533059204,26.367,15.625
1533059204,36.133,18.066
1533059204,29.785,19.043
1533059204,17.578,13.184
1533059204,10.254,11.719
1533059204,30.762,12.207
1533059204,39.551,8.301
1533059204,29.297,10.254
1533059204,21.484,13.184
1533059204,15.137,15.137
1533059204,29.297,18.555
1533059204,37.598,19.531
1533059204,24.902,20.508
1533059204,13.184,20.508
1533059204,7.324,17.578
1533059204,21.973,17.578
1533059204,40.039,17.578
1533059204,34.668,19.043
1533059204,26.855,19.531
1533059204,21.484,17.09
1533059204,26.367,18.066
1533059204,40.039,20.02
1533059204,42.48,21.484
1533059204,35.645,19.531
1533059204,25.879,16.113
1533059204,26.367,18.066
1533059204,37.598,21.484
1533059204,38.574,22.461
1533059204,32.227,20.996
1533059204,19.043,17.578
1533059204,19.531,14.648
1533059204,40.039,15.625
1533059204,41.504,16.113
1533059204,28.809,13.672
1533059204,18.555,14.16
1533059204,17.09,18.066
1533059204,34.668,20.996
1533059204,36.621,22.461
1533059204,26.367,23.438
1533059204,20.996,23.926
1533059204,16.602,23.438
1533059204,36.621,22.949
1533059204,44.922,22.461
1533059204,35.156,23.438
1533059204,21.973,21.484
1533059204,11.719,18.066
1533059204,27.344,15.625
1533059204,38.086,16.113
1533059204,26.855,14.16
1533059204,19.043,14.648
1533059204,16.602,18.066
1533059204,27.344,19.531
1533059204,41.016,21.973
1533059204,38.574,24.414
1533059204,29.785,25.391
1533059204,17.578,25.391
1533059204,25.879,25.391
1533059204,42.969,25.879
1533059204,38.574,25.391
1533059204,33.203,25.879
1533059204,28.809,26.855
1533059204,32.227,23.926
1533059204,41.504,20.996
1533059204,37.598,22.949
1533059204,29.785,25.391
1533059204,15.625,23.926
1533059204,20.02,19.531
1533059204,38.574,18.555
1533059204,32.715,18.555
1533059204,20.996,14.16
1533059204,18.066,12.695
1533059204,22.461,13.672
1533059204,39.062,15.137
1533059204,43.945,17.578
1533059204,34.18,19.043
1533059204,19.043,17.578
1533059204,16.113,18.555
1533059204,30.273,18.555
1533059204,30.762,18.066
1533059204,27.344,18.555
1533059204,15.625,18.555
1533059204,9.766,20.02
1533059204,30.762,22.949
1533059204,38.086,22.461
1533059204,25.879,20.508
1533059204,20.02,22.949
1533059204,17.578,25.391
1533059204,30.273,27.832
1533059204,37.598,28.32
1533059204,30.273,25.879
1533059204,23.438,23.926
1533059204,13.184,24.414
1533059204,18.555,21.973
1533059204,31.25,21.484
1533059204,32.227,23.926
1533059204,22.949,22.949
1533059204,12.207,21.973
1533059204,25.391,21.973
1533059204,40.527,20.508
1533059204,35.645,17.578
1533059204,32.227,19.043
1533059204,18.555,18.555
1533059204,16.602,17.09
1533059204,34.668,17.09
1533059204,34.668,20.02
1533059204,25.879,22.949
1533059204,14.648,25.391
1533059204,15.137,27.344
1533059204,29.297,26.367
1533059204,28.809,24.902
1533059205,22.461,24.902
1533059205,7.324,22.461
1533059205,11.719,18.066
1533059205,35.645,20.508
1533059205,35.645,23.926
1533059205,24.902,21.484
1533059205,16.602,20.02
1533059205,13.184,20.02
1533059205,25.879,20.508
1533059205,31.738,20.02
1533059205,25.879,19.043
1533059205,17.578,16.602
1533059205,12.695,16.113
1533059205,26.367,17.09
1533059205,30.273,17.09
1533059205,23.926,19.043
1533059205,17.578,19.531
1533059205,9.277,17.578
1533059205,24.414,15.625
1533059205,37.109,15.625
1533059205,27.832,16.113
1533059205,16.113,16.113
1533059205,7.324,13.184
1533059205,20.02,11.719
1533059205,30.762,13.672
1533059205,25.879,16.602
1533059205,26.855,20.508
1533059205,27.344,21.484
1533059205,39.551,21.973
1533059205,54.688,20.508
1533059205,47.852,18.555
1533059205,39.551,16.602
1533059205,31.25,14.648
1533059205,27.832,15.137
1533059205,40.039,17.578
1533059205,41.992,20.508
1533059205,27.832,19.531
1533059205,18.555,19.531
1533059205,22.461,17.578
1533059205,29.297,15.625
1533059205,22.949,16.602
1533059205,18.066,17.09
1533059205,8.301,20.996
1533059205,2.441,19.531
1533059205,28.32,15.625
1533059205,33.203,20.996
1533059205,16.113,23.926
1533059205,3.906,20.996
1533059205,3.906,19.531
1533059205,25.879,20.508
1533059205,30.762,19.531
1533059205,19.531,15.625
1533059205,14.16,14.648
1533059205,13.672,15.137
1533059205,31.25,15.625
1533059205,39.551,15.625
1533059205,30.273,16.113
1533059205,23.926,19.043
1533059205,17.578,18.555
1533059205,29.297,19.043
1533059205,37.598,19.043
1533059205,31.738,17.578
1533059205,24.902,18.066
1533059205,14.16,19.531
1533059205,24.414,20.996
1533059205,37.598,20.508
1533059205,29.297,20.02
1533059205,24.902,20.02
1533059205,15.137,20.508
1533059205,17.578,20.508
1533059205,32.227,17.09
1533059205,31.25,15.137
1533059205,22.949,16.113
1533059205,8.301,15.625
1533059205,10.742,16.113
1533059205,31.738,17.09
1533059205,34.18,18.555
1533059205,25.391,18.555
1533059205,19.531,19.043
1533059205,21.484,21.973
1533059205,42.969,21.484
1533059205,49.805,20.02
1533059205,40.039,19.043
1533059205,29.785,22.461
1533059205,28.809,25.391
1533059205,41.016,20.996
1533059205,41.016,16.602
1533059205,35.156,17.09
1533059205,23.926,17.09
1533059205,13.672,17.578
1533059205,28.809,18.555
1533059205,36.621,17.09
1533059205,23.926,18.555
1533059205,8.301,22.461
1533059205,6.348,18.066
1533059205,25.391,10.742
1533059205,30.273,14.16
1533059205,25.391,21.973
1533059205,27.344,23.926
1533059205,23.438,23.926
1533059205,31.738,24.414
1533059205,44.922,24.414
1533059205,41.504,24.902
1533059205,29.297,23.438
1533059205,17.09,20.508
1533059205,21.484,18.066
1533059205,31.738,12.695
1533059205,30.762,14.16
1533059205,16.602,20.996
1533059205,1.465,20.508
1533059205,10.742,18.555
1533059205,24.414,20.02
1533059205,17.578,18.066
1533059205,1.953,15.137
1533059205,-11.719,15.137
1533059205,-5.859,14.16
1533059205,15.137,12.695
1533059205,17.09,15.137
1533059205,11.719,16.113
1533059205,8.789,19.043
1533059205,8.301,20.508
1533059205,22.461,17.578
1533059205,30.762,19.531
1533059205,27.832,19.043
1533059205,20.508,16.113
1533059205,20.02,17.09
1533059205,36.621,16.602
1533059205,43.457,20.02
1533059205,36.133,23.926
1533059205,23.926,20.508
1533059205,19.531,19.043
1533059205,35.156,22.949
1533059205,36.133,23.438
1533059205,24.902,18.555
1533059205,19.531,14.16
1533059205,14.16,15.137
1533059205,26.855,17.578
1533059205,34.668,17.09
1533059205,25.879,19.531
1533059205,14.16,20.996
1533059205,4.395,19.531
1533059205,21.973,17.578
1533059205,37.109,17.09
1533059205,33.203,19.043
1533059205,25.879,19.531
1533059205,21.484,17.578
1533059205,34.668,14.16
1533059205,45.41,13.184
1533059205,39.062,14.16
1533059205,34.668,14.16
1533059205,28.32,13.672
1533059205,31.738,14.648
1533059205,42.48,14.16
1533059205,36.621,13.184
1533059205,25.391,13.672
1533059205,16.113,15.625
1533059205,20.508,19.043
1533059205,36.133,18.066
1533059205,33.691,20.02
1533059205,22.461,23.926
1533059205,9.277,22.461
1533059205,9.277,17.578
1533059205,25.391,12.207
1533059205,29.785,12.695
1533059205,25.391,17.09
1533059205,13.672,16.602
1533059205,13.184,15.137
1533059205,34.668,15.137
1533059205,38.086,13.672
1533059205,29.785,13.184
1533059205,22.461,12.207
1533059205,18.555,10.254
1533059205,34.668,10.254
1533059205,42.969,14.16
1533059205,34.18,14.648
1533059205,20.508,13.184
1533059205,16.113,12.695
1533059205,30.273,8.789
1533059205,33.203,9.277
1533059205,24.414,12.207
1533059205,19.043,12.695
1533059205,12.695,13.184
1533059205,19.531,12.207
1533059205,28.809,12.207
1533059205,26.367,17.578
1533059205,19.531,20.02
1533059205,13.672,18.066
1533059205,32.715,16.602
1533059205,48.34,16.602
1533059205,33.203,15.625
1533059205,16.113,16.113
1533059205,6.836,18.555
1533059205,17.09,20.996
1533059205,37.109,20.02
1533059205,35.645,19.043
1533059205,26.367,23.438
1533059205,13.184,23.438
1533059205,17.578,17.578
1533059205,34.18,16.113
1533059205,31.25,18.555
1533059205,23.438,20.996
1533059205,11.719,22.461
1533059205,6.836,19.043
1533059205,23.926,18.066
1533059205,28.32,18.555
1533059205,17.578,19.043
1533059205,6.836,17.09
1533059205,10.254,16.113
1533059205,27.832,20.508
1533059205,34.668,27.344
1533059205,30.762,28.32
1533059205,15.137,21.973
1533059205,13.184,17.578
1533059205,38.086,21.973
1533059205,41.504,27.344
1533059205,29.297,26.855
1533059205,24.902,26.367
1533059205,17.09,26.855
1533059205,25.879,27.344
1533059205,32.715,26.855
1533059205,22.949,25.391
1533059205,8.789,23.926
1533059205,2.93,20.508
1533059205,23.926,23.926
1533059205,32.227,27.344
1533059205,23.438,29.785
1533059205,20.02,28.809
1533059205,10.254,22.949
1533059205,16.113,21.973
1533059205,26.855,25.879
1533059205,25.879,29.785
1533059205,15.625,26.367
1533059205,3.906,20.996
1533059205,15.625,19.043
1533059205,29.785,20.508
1533059205,25.879,24.414
1533059205,18.555,20.996
1533059205,10.742,17.09
1533059205,17.578,20.508
1533059205,32.227,22.461
1533059205,24.902,23.438
1533059205,16.602,23.926
1533059205,5.859,23.438
1533059205,7.812,23.926
1533059205,27.832,23.926
1533059205,28.809,23.438
1533059205,23.438,22.461
1533059205,15.625,22.949
1533059205,13.672,22.461
1533059205,31.25,21.484
1533059205,33.203,19.531
1533059205,22.461,18.555
1533059205,15.137,15.625
1533059205,14.648,12.695
1533059205,29.297,13.672
1533059205,32.715,13.184
1533059206,24.902,13.184
1533059206,16.113,14.16
1533059206,7.324,14.648
1533059206,19.531,15.137
1533059206,23.438,17.09
1533059206,9.277,14.648
1533059206,7.812,14.648
1533059206,6.348,15.625
1533059206,14.16,11.23
1533059206,27.832,9.766
1533059206,19.531,11.719
1533059206,9.766,12.695
1533059206,-3.418,12.207
1533059206,5.859,14.648
1533059206,24.414,16.113
1533059206,23.438,17.09
1533059206,26.855,17.09
1533059206,24.414,15.625
1533059206,30.273,15.625
1533059206,45.41,13.672
1533059206,44.922,11.23
1533059206,37.598,10.254
1533059206,21.484,8.301
1533059206,24.902,11.719
1533059206,43.945,17.578
1533059206,36.133,15.625
1533059206,22.461,11.23
1533059206,12.207,11.719
1533059206,11.719,9.766
1533059206,30.762,9.277
1533059206,33.691,13.672
1533059206,22.461,14.648
1533059206,13.184,16.113
1533059206,11.23,16.602
1533059206,26.855,14.16
1533059206,29.785,14.648
1533059206,23.926,17.09
1533059206,17.09,17.09
1533059206,13.672,16.113
1533059206,27.832,16.113
1533059206,37.598,15.137
1533059206,35.156,12.695
1533059206,29.297,18.066
1533059206,25.391,26.367
1533059206,40.527,26.855
1533059206,44.434,23.926
1533059206,39.551,23.438
1533059206,32.715,22.461
1533059206,22.949,20.508
1533059206,31.25,18.066
1533059206,39.062,18.066
1533059206,34.18,19.043
1533059206,25.879,19.531
1533059206,15.625,18.066
1533059206,24.902,15.625
1533059206,32.715,12.207
1533059206,18.066,12.207
1533059206,13.184,18.066
1533059206,8.301,20.508
1533059206,12.695,15.625
1533059206,31.25,10.254
1533059206,30.762,14.16
1533059206,23.438,21.973
1533059206,12.695,24.902
1533059206,18.555,21.484
1533059206,40.039,19.531
1533059206,42.969,22.461
1533059206,41.016,26.367
1533059206,34.18,28.809
1533059206,32.715,28.809
1533059206,47.852,26.367
1533059206,46.387,23.438
1533059206,37.109,22.949
1533059206,26.367,24.902
1533059206,20.508,26.855
1533059206,34.18,27.344
1533059206,32.227,25.391
1533059206,14.648,19.043
1533059206,10.742,17.09
1533059206,10.742,23.926
1533059206,20.508,30.273
1533059206,31.738,32.227
1533059206,23.926,27.832
1533059206,19.043,26.367
1533059206,23.438,31.738
1533059206,31.738,29.297
1533059206,39.551,22.461
1533059206,32.715,22.461
1533059206,21.973,27.832
1533059206,20.996,30.273
1533059206,32.227,25.391
1533059206,46.875,20.996
1533059206,43.457,20.02
1533059206,32.715,20.996
1533059206,24.414,23.926
1533059206,33.203,24.414
1533059206,47.852,24.902
1533059206,41.992,23.926
1533059206,30.762,20.02
1533059206,18.555,18.555
1533059206,22.461,18.066
1533059206,37.598,16.113
1533059206,33.203,17.09
1533059206,27.832,18.066
1533059206,18.555,18.066
1533059206,15.625,18.066
1533059206,27.832,12.207
1533059206,23.926,9.766
1533059206,16.602,11.719
1533059206,7.812,15.137
1533059206,7.324,18.066
1533059206,32.715,18.066
1533059206,33.203,17.578
1533059206,18.555,19.043
1533059206,16.113,21.484
1533059206,14.16,20.02
1533059206,25.391,20.02
1533059206,29.297,23.438
1533059206,21.484,23.926
1533059206,12.207,22.461
1533059206,10.254,19.531
1533059206,31.738,15.137
1533059206,47.363,16.602
1533059206,30.762,22.461
1533059206,16.602,23.438
1533059206,20.996,20.996
1533059206,31.25,18.066
1533059206,27.344,15.625
1533059206,24.902,17.578
1533059206,25.391,20.02
1533059206,15.625,18.555
1533059206,27.344,20.996
1533059206,39.062,20.508
1533059206,35.156,15.137
1533059206,30.273,16.113
1533059206,21.484,21.484
1533059206,32.715,22.461
1533059206,43.457,18.066
1533059206,27.832,17.578
1533059206,25.879,19.531
1533059206,13.672,18.555
1533059206,16.602,17.578
1533059206,39.062,16.113
1533059206,38.574,17.578
1533059206,29.785,20.508
1533059206,18.066,19.531
1533059206,20.996,20.996
1533059206,34.668,22.461
1533059206,39.551,22.949
1533059206,36.133,24.902
1533059206,25.879,28.32
1533059206,21.973,30.273
1533059206,37.109,27.344
1533059206,40.039,27.344
1533059206,30.273,28.32
1533059206,20.996,24.902
1533059206,18.066,25.391
1533059206,35.156,27.832
1533059206,35.645,26.367
1533059206,21.484,24.414
1533059206,13.672,22.461
1533059206,6.836,21.973
1533059206,22.461,21.484
1533059206,32.227,23.926
1533059206,18.066,23.926
1533059206,9.277,21.484
1533059206,2.441,21.484
1533059206,13.184,17.578
1533059206,27.832,17.578
1533059206,20.02,20.02
1533059206,8.301,20.996
1533059206,2.441,22.461
1533059206,14.648,19.043
1533059206,25.391,17.09
1533059206,20.996,20.02
1533059206,14.16,18.555
1533059206,6.348,14.16
1533059206,16.113,15.625
1533059206,28.809,16.602
1533059206,26.367,16.113
1533059206,18.066,14.648
1533059206,3.418,12.207
1533059206,6.348,14.16
1533059206,23.438,15.625
1533059206,22.461,15.625
1533059206,16.602,15.625
1533059206,12.207,11.719
1533059206,12.207,14.648
1533059206,17.578,20.508
1533059206,15.137,20.508
1533059206,11.23,19.531
1533059206,3.418,19.531
1533059206,1.465,18.066
1533059206,18.066,19.043
1533059206,23.926,20.508
1533059206,18.066,19.531
1533059206,6.348,20.996
1533059206,1.465,21.484
1533059206,17.578,19.531
1533059206,29.785,20.02
1533059206,29.785,19.043
1533059206,22.461,18.555
1533059206,15.137,17.09
1533059206,26.855,15.625
1533059206,34.668,17.578
1533059206,22.461,16.113
1533059206,13.672,16.113
1533059206,7.812,17.578
1533059206,24.902,19.531
1533059206,37.598,23.926
1533059206,28.32,25.391
1533059206,24.902,24.414
1533059206,14.16,21.973
1533059206,17.09,21.484
1533059206,32.227,19.531
1533059206,32.227,16.602
1533059206,23.926,16.113
1533059206,16.113,18.066
1533059206,22.461,20.508
1533059206,36.133,20.508
1533059206,32.715,19.043
1533059206,23.438,17.578
1533059206,10.742,16.113
1533059206,16.602,17.09
1533059206,32.227,16.113
1533059206,28.32,13.672
1533059206,21.484,13.184
1533059206,10.742,13.184
1533059206,12.695,13.184
1533059206,31.738,14.16
1533059206,22.461,12.695
1533059206,8.789,10.254
1533059206,5.859,10.742
1533059206,12.695,8.789
1533059206,27.832,11.719
1533059206,21.484,20.02
1533059206,26.367,24.414
1533059206,28.32,25.391
1533059206,8.301,20.508
1533059206,15.625,14.648
1533059206,32.715,14.648
1533059206,23.926,16.113
1533059206,12.207,17.09
1533059206,9.277,17.09
1533059206,19.531,16.113
1533059206,28.32,19.531
1533059206,24.902,22.461
1533059206,15.137,19.531
1533059206,5.859,17.09
1533059206,22.461,16.602
1533059206,35.156,12.207
1533059206,24.902,12.207
1533059206,19.043,16.602
1533059206,11.23,18.555
1533059206,20.508,20.508
1533059206,34.668,18.555
1533059207,32.227,18.066
1533059207,23.926,20.996
1533059207,9.766,19.531
1533059207,16.602,15.137
1533059207,29.297,12.695
1533059207,26.367,15.625
1533059207,21.484,17.09
1533059207,14.648,16.602
1533059207,19.531,17.578
1533059207,30.273,18.555
1533059207,32.227,18.555
1533059207,32.227,15.625
1533059207,25.391,5.371
1533059207,18.066,1.953
1533059207,23.438,5.859
1533059207,22.461,8.301
1533059207,23.438,11.23
1533059207,14.16,11.719
1533059207,12.695,15.137
1533059207,33.691,18.066
1533059207,37.109,14.648
1533059207,24.902,14.648
1533059207,11.719,20.508
1533059207,12.695,22.461
1533059207,32.715,20.02
1533059207,34.668,18.066
1533059207,30.273,22.949
1533059207,31.25,26.367
1533059207,25.879,22.949
1533059207,31.25,22.949
1533059207,34.668,28.32
1533059207,33.691,29.297
1533059207,37.598,28.809
1533059207,31.738,25.391
1533059207,30.762,17.578
1533059207,38.086,14.16
1533059207,38.574,14.648
1533059207,33.203,15.137
1533059207,20.508,20.02
1533059207,26.855,20.996
1533059207,44.922,20.508
1533059207,47.363,23.438
1533059207,39.551,21.973
1533059207,25.879,18.555
1533059207,27.344,17.09
1533059207,42.48,19.043
1533059207,45.898,23.926
1533059207,39.062,20.996
1533059207,30.762,18.555
1533059207,28.809,21.484
1533059207,41.016,19.531
1533059207,44.922,18.066
1533059207,37.598,20.996
1533059207,25.879,19.043
1533059207,25.391,19.043
1533059207,34.668,20.02
1533059207,32.715,20.508
1533059207,26.855,20.996
1533059207,18.066,19.531
1533059207,14.16,17.09
1533059207,29.297,15.625
1533059207,32.715,14.16
1533059207,22.461,14.16
1533059207,10.742,14.648
1533059207,3.906,13.184
1533059207,19.043,14.648
1533059207,28.809,12.695
1533059207,24.902,15.137
1533059207,15.137,17.09
1533059207,5.859,12.207
1533059207,11.719,10.254
1533059207,17.09,11.719
1533059207,20.996,17.09
1533059207,23.438,25.391
1533059207,17.09,28.809
1533059207,26.855,23.926
1533059207,38.574,18.555
1533059207,24.902,17.09
1533059207,7.324,14.16
1533059207,0,18.066
1533059207,7.324,22.461
1533059207,20.508,17.578
1533059207,19.043,20.02
1533059207,11.23,23.438
1533059207,7.324,21.484
1533059207,12.207,16.113
1533059207,19.531,11.23
1533059207,14.648,13.672
1533059207,16.602,17.578
1533059207,15.625,19.043
1533059207,12.207,13.672
1533059207,20.02,8.301
1533059207,21.484,10.742
1533059207,19.043,17.09
1533059207,10.254,19.043
1533059207,10.742,17.09
1533059207,26.855,14.648
1533059207,29.297,16.602
1533059207,26.855,21.484
1533059207,18.555,23.926
1533059207,5.859,18.066
1533059207,14.648,12.695
1533059207,23.438,13.672
1533059207,22.461,16.602
1533059207,14.648,19.043
1533059207,7.812,17.09
1533059207,22.949,16.602
1533059207,31.25,15.625
1533059207,24.902,11.23
1533059207,17.578,12.695
1533059207,8.789,16.113
1533059207,21.484,16.602
1533059207,31.738,15.625
1533059207,26.855,15.137
1533059207,22.461,17.09
1533059207,11.719,19.531
1533059207,15.625,19.531
1533059207,30.273,14.16
1533059207,35.156,13.184
1533059207,32.227,19.043
1533059207,15.625,20.508
1533059207,13.184,15.625
1533059207,30.762,14.648
1533059207,31.25,15.625
1533059207,18.555,16.602
1533059207,12.695,21.484
1533059207,21.973,23.926
1533059207,26.367,22.949
1533059207,23.926,20.02
1533059207,22.949,15.137
1533059207,17.578,16.113
1533059207,22.461,19.043
1533059207,31.25,20.02
1533059207,26.367,25.879
1533059207,20.996,27.344
1533059207,13.184,18.555
1533059207,8.789,15.137
1533059207,19.531,20.508
1533059207,26.367,23.438
1533059207,23.926,22.949
1533059207,16.113,21.973
1533059207,5.859,21.973
1533059207,18.555,22.949
1533059207,35.645,22.949
1533059207,36.133,23.438
1533059207,28.809,24.902
1533059207,18.555,23.438
1533059207,23.438,20.02
1533059207,36.133,24.414
1533059207,36.621,28.809
1533059207,31.738,30.762
1533059207,25.391,28.809
1533059207,28.32,22.949
1533059207,36.621,20.996
1533059207,32.227,16.113
1533059207,18.555,13.672
1533059207,5.859,14.16
1533059207,19.043,13.184
1533059207,34.18,12.695
1533059207,25.879,14.16
1533059207,16.602,12.695
1533059207,8.789,11.719
1533059207,14.648,10.254
1533059207,31.25,9.766
1533059207,23.438,11.23
1533059207,15.137,15.137
1533059207,14.16,19.043
1533059207,21.484,19.531
1533059207,37.598,17.09
1533059207,39.062,13.184
1533059207,37.109,16.113
1533059207,20.996,18.066
1533059207,16.113,15.625
1533059207,38.086,15.137
1533059207,36.621,13.672
1533059207,24.414,6.836
1533059207,16.113,9.766
1533059207,14.16,19.043
1533059207,30.762,24.414
1533059207,40.527,27.344
1533059207,32.227,25.879
1533059207,8.789,22.949
1533059207,1.465,18.555
1533059207,24.414,16.113
1533059207,33.691,16.113
1533059207,29.297,13.184
1533059207,24.414,11.719
1533059207,19.531,17.09
1533059207,29.297,17.09
1533059207,29.785,8.789
1533059207,22.461,4.395
1533059207,20.508,2.93
1533059207,12.207,8.301
1533059207,22.949,17.578
1533059207,40.039,20.02
1533059207,37.109,23.438
1533059207,23.926,22.461
1533059207,7.324,17.09
1533059207,14.16,10.742
1533059207,34.668,3.418
1533059207,30.273,5.371
1533059207,15.137,14.16
1533059207,8.301,18.555
1533059207,18.066,17.09
1533059207,35.156,14.16
1533059207,35.645,17.09
1533059207,23.438,19.531
1533059207,4.883,14.648
1533059207,16.113,13.672
1533059207,37.109,11.23
1533059207,30.273,13.672
1533059207,23.438,19.043
1533059207,15.137,16.602
1533059207,10.254,16.602
1533059207,28.32,21.484
1533059207,36.133,24.414
1533059207,23.926,17.578
1533059207,10.742,13.672
1533059207,14.648,15.137
1533059207,23.438,17.578
1533059207,21.973,21.484
1533059207,22.461,24.902
1533059207,22.461,26.855
1533059207,18.555,21.973
1533059207,26.367,18.066
1533059207,32.227,18.555
1533059207,26.855,19.531
1533059207,17.09,23.926
1533059207,13.184,29.297
1533059207,21.973,25.879
1533059207,18.555,19.043
1533059207,3.418,14.16
1533059207,-1.465,4.883
1533059207,6.836,6.836
1533059207,16.113,17.09
1533059207,23.926,19.531
1533059207,29.297,22.461
1533059207,21.484,20.508
1533059207,4.395,16.602
1533059207,12.207,14.16
1533059207,29.297,13.184
1533059207,28.809,21.484
1533059207,23.438,23.438
1533059207,11.23,20.996
1533059207,12.695,22.461
1533059207,36.621,24.414
1533059207,35.645,24.414
1533059207,20.996,20.02
1533059207,15.137,16.602
1533059207,17.578,21.973
1533059207,31.25,21.484
1533059207,32.715,14.648
1533059207,24.414,15.137
1533059207,11.23,14.648
1533059207,9.277,15.137
1533059207,20.508,20.508
1533059208,15.137,24.902
1533059208,17.09,30.273
1533059208,22.461,31.738
1533059208,20.508,30.273
1533059208,27.832,26.855
1533059208,25.391,18.066
1533059208,21.973,11.719
1533059208,18.555,16.113
1533059208,24.902,25.879
1533059208,39.062,21.484
1533059208,42.48,19.531
1533059208,34.668,24.902
1533059208,23.438,26.367
1533059208,20.996,23.438
1533059208,29.297,17.09
1533059208,36.133,16.602
1533059208,36.621,19.531
1533059208,33.691,24.414
1533059208,24.414,28.809
1533059208,27.344,25.391
1533059208,38.574,21.973
1533059208,35.156,26.855
1533059208,30.762,32.715
1533059208,23.926,31.25
1533059208,23.926,27.832
1533059208,35.156,21.973
1533059208,37.109,20.02
1533059208,37.598,24.902
1533059208,33.203,26.367
1533059208,33.203,23.926
1533059208,43.945,21.973
1533059208,45.898,21.484
1533059208,40.039,21.973
1533059208,30.762,21.484
1533059208,29.785,20.996
1533059208,41.504,20.508
1533059208,47.852,20.996
1533059208,39.062,23.438
1533059208,23.926,21.973
1533059208,21.973,21.973
1533059208,34.18,20.02
1533059208,33.203,18.066
1533059208,30.273,20.02
1533059208,20.996,20.996
1533059208,16.113,21.484
1533059208,31.25,19.043
1533059208,36.133,16.602
1533059208,25.879,19.043
1533059208,15.137,20.508
1533059208,11.719,20.508
1533059208,25.879,23.438
1533059208,35.156,26.367
1533059208,29.297,24.414
1533059208,18.555,22.461
1533059208,9.277,15.137
1533059208,17.578,6.836
1533059208,30.273,12.695
1533059208,32.715,21.973
1533059208,18.066,21.973
1533059208,0.488,15.137
1533059208,13.672,10.742
1533059208,25.879,13.672
1533059208,23.438,19.531
1533059208,16.602,22.949
1533059208,4.395,21.973
1533059208,12.695,20.02
1533059208,25.879,20.02
1533059208,23.438,22.949
1533059208,20.996,24.414
1533059208,9.766,19.531
1533059208,10.742,11.23
1533059208,32.715,8.301
1533059208,39.551,17.09
1533059208,41.992,26.855
1533059208,36.133,27.832
1533059208,30.762,22.461
1533059208,45.41,18.066
1533059208,45.41,19.043
1533059208,30.762,22.949
1533059208,15.137,17.578
1533059208,15.625,17.09
1533059208,35.156,22.949
1533059208,42.969,26.855
1533059208,40.039,30.762
1533059208,24.902,24.902
1533059208,6.836,13.184
1533059208,16.113,10.254
1533059208,31.25,14.648
1533059208,24.902,16.602
1533059208,11.719,18.066
1533059208,13.184,20.508
1533059208,30.762,20.996
1533059208,32.227,21.973
1533059208,20.02,19.531
1533059208,13.672,17.578
1533059208,15.625,17.578
1533059208,30.762,19.043
1533059208,38.574,21.973
1533059208,31.738,21.973
1533059208,25.879,22.461
1533059208,23.926,23.438
1533059208,30.762,19.043
1533059208,43.457,18.555
1533059208,39.062,19.531
1533059208,28.809,18.555
1533059208,17.09,18.555
1533059208,15.625,17.09
1533059208,29.785,15.137
1533059208,32.715,15.137
1533059208,26.855,18.555
1533059208,13.672,19.531
1533059208,13.184,15.137
1533059208,21.484,10.742
1533059208,17.578,9.277
1533059208,16.602,11.719
1533059208,8.301,15.137
1533059208,10.742,16.113
1533059208,26.367,17.578
1533059208,25.391,18.066
1533059208,19.531,15.137
1533059208,8.789,12.207
1533059208,6.836,15.137
1533059208,25.879,17.09
1533059208,33.691,16.602
1533059208,29.785,20.02
1533059208,20.02,22.461
1533059208,14.648,22.949
1533059208,29.785,21.484
1533059208,33.691,20.02
1533059208,26.367,19.531
1533059208,15.137,19.043
1533059208,10.254,20.508
1533059208,16.113,19.043
1533059208,18.555,14.648
1533059208,16.602,16.113
1533059208,6.348,18.555
1533059208,-4.883,18.555
1533059208,2.93,18.066
1533059208,17.09,16.602
1533059208,14.648,17.09
1533059208,5.371,17.09
1533059208,2.441,17.578
1533059208,15.137,17.09
1533059208,31.738,19.043
1533059208,31.25,18.066
1533059208,30.273,17.578
1533059208,27.344,18.555
1533059208,32.715,18.555
1533059208,48.828,18.555
1533059208,46.387,15.625
1533059208,32.715,14.648
1533059208,21.484,18.555
1533059208,20.996,19.531
1533059208,29.297,19.043
1533059208,31.738,18.555
1533059208,22.949,17.578
1533059208,4.883,17.09
1533059208,1.465,14.16
1533059208,19.043,15.137
1533059208,18.066,16.113
1533059208,7.324,14.16
1533059208,1.953,13.184
1533059208,-1.465,13.184
1533059208,10.254,13.672
1533059208,20.996,15.137
1533059208,21.973,16.602
1533059208,18.066,16.113
1533059208,17.578,16.113
1533059208,38.574,17.578
1533059208,52.734,20.996
1533059208,49.316,20.508
1533059208,43.945,15.137
1533059208,36.621,18.066
1533059208,39.551,24.902
1533059208,45.41,27.344
1533059208,42.48,27.344
1533059208,31.738,25.879
1533059208,21.484,25.879
1533059208,25.391,24.414
1533059208,34.18,22.461
1533059208,29.297,19.531
1533059208,17.09,19.531
1533059208,3.906,19.531
1533059208,12.695,19.531
1533059208,26.367,18.555
1533059208,20.996,16.602
1533059208,18.555,21.484
1533059208,9.277,22.949
1533059208,11.23,19.043
1533059208,31.738,14.648
1533059208,35.645,17.09
1533059208,30.762,21.484
1533059208,16.113,21.484
1533059208,20.508,22.461
1533059208,49.316,25.391
1533059208,52.246,22.949
1533059208,39.062,21.484
1533059208,22.461,23.926
1533059208,17.09,25.391
1533059208,31.25,20.508
1533059208,33.691,19.043
1533059208,24.902,21.973
1533059208,7.324,19.531
1533059208,-0.977,14.16
1533059208,18.066,15.137
1533059208,23.438,16.113
1533059208,18.555,14.648
1533059208,12.207,14.16
1533059208,3.906,16.602
1533059208,17.578,18.066
1533059208,29.297,17.578
1533059208,22.461,20.508
1533059208,18.066,22.949
1533059208,18.066,21.484
1533059208,33.203,20.02
1533059208,46.387,21.484
1533059208,36.621,21.484
1533059208,27.344,19.043
1533059208,20.508,18.555
1533059208,27.832,19.531
1533059208,40.039,23.926
1533059208,33.203,25.879
1533059208,23.926,22.949
1533059208,14.16,21.484
1533059208,20.02,21.973
1533059208,41.992,24.902
1533059208,46.387,26.855
1533059208,30.273,19.043
1533059208,8.789,14.648
1533059208,12.695,19.531
1533059208,31.738,22.461
1533059208,25.879,22.461
1533059208,19.043,22.949
1533059208,21.973,27.344
1533059208,23.438,26.367
1533059208,38.574,23.438
1533059208,47.363,24.902
1533059208,40.527,28.809
1533059208,29.297,30.273
1533059208,23.438,25.879
1533059208,32.715,21.973
1533059208,40.527,26.855
1533059208,37.109,32.715
1533059208,29.297,32.715
1533059208,20.996,27.832
1533059208,27.344,20.996
1533059208,34.18,20.508
1533059208,26.367,25.391
1533059208,8.789,26.855
1533059208,8.301,29.297
1533059208,37.598,34.668
1533059208,43.945,30.273
1533059208,20.508,20.508
1533059208,12.207,15.625
1533059208,12.207,20.02
1533059208,26.855,27.832
1533059209,41.016,29.785
1533059209,32.227,28.32
1533059209,18.555,26.367
1533059209,12.695,23.438
1533059209,25.879,20.508
1533059209,40.039,21.973
1533059209,40.039,23.438
1533059209,29.785,18.066
1533059209,18.555,12.695
1533059209,19.531,18.066
1533059209,26.855,25.391
1533059209,29.297,26.855
1533059209,22.949,25.879
1533059209,2.441,21.484
1533059209,-1.953,17.578
1533059209,16.602,17.578
1533059209,24.902,20.996
1533059209,18.555,23.438
1533059209,9.277,24.414
1533059209,13.184,19.531
1533059209,26.367,15.137
1533059209,28.32,18.066
1533059209,28.809,21.973
1533059209,30.273,23.926
1533059209,27.832,19.531
1533059209,28.32,8.301
1533059209,32.715,5.371
1533059209,36.133,4.883
1533059209,28.32,2.441
1533059209,18.555,8.301
1533059209,29.297,12.695
1533059209,38.574,14.16
1533059209,26.855,15.137
1533059209,11.23,10.742
1533059209,2.93,4.883
1533059209,19.043,6.836
1533059209,32.227,13.672
1533059209,26.855,19.043
1533059209,20.508,20.996
1533059209,12.207,18.555
1533059209,18.066,13.672
1533059209,34.18,7.812
1533059209,31.738,10.742
1533059209,13.672,19.531
1533059209,7.324,23.926
1533059209,24.414,26.367
1533059209,36.133,26.855
1533059209,29.297,24.902
1533059209,25.879,20.996
1533059209,25.391,14.16
1533059209,37.109,16.113
1533059209,56.152,24.414
1533059209,51.27,24.414
1533059209,35.156,19.043
1533059209,28.809,14.16
1533059209,33.203,13.184
1533059209,42.48,13.672
1533059209,42.48,15.625
1533059209,38.574,22.949
1533059209,34.668,26.367
1533059209,36.621,20.02
1533059209,48.34,14.16
1533059209,50.781,14.16
1533059209,46.387,20.508
1533059209,37.109,27.832
1533059209,33.203,26.367
1533059209,51.758,22.949
1533059209,50.781,20.508
1533059209,35.645,16.113
1533059209,29.785,9.766
1533059209,25.391,14.16
1533059209,33.691,24.902
1533059209,41.016,23.926
1533059209,33.203,18.066
1533059209,27.832,18.555
1533059209,30.762,20.02
1533059209,34.18,18.066
1533059209,40.527,17.09
1533059209,41.016,18.555
1533059209,35.645,15.137
1533059209,33.203,10.742
1533059209,51.27,13.184
1533059209,68.359,19.043
1533059209,51.758,16.602
1533059209,38.086,10.742
1533059209,42.48,10.254
1533059209,50.293,16.113
1533059209,53.711,18.066
1533059209,46.387,16.113
1533059209,43.457,16.113
1533059209,44.922,16.602
1533059209,47.852,14.16
1533059209,63.477,13.184
1533059209,70.312,15.625
1533059209,66.895,12.207
1533059209,52.246,5.371
1533059209,52.734,0
1533059209,81.543,0.977
1533059209,78.613,3.906
1533059209,68.359,11.719
1533059209,64.453,4.883
1533059209,64.453,-3.906
1533059209,86.914,6.836
1533059209,94.727,10.254
1533059209,90.332,6.836
1533059209,88.379,11.719
1533059209,93.75,12.695
1533059209,104.004,6.348
1533059209,108.398,8.301
1533059209,107.91,8.789
1533059209,89.844,11.23
1533059209,84.473,19.531
1533059209,100.586,21.484
1533059209,102.051,18.066
1533059209,96.191,13.672
1533059209,82.031,10.742
1533059209,82.031,14.16
1533059209,98.145,18.066
1533059209,97.168,13.184
1533059209,88.867,13.184
1533059209,81.543,13.672
1533059209,76.172,8.301
1533059209,91.797,6.836
1533059209,109.863,11.719
1533059209,101.074,12.207
1533059209,87.402,15.625
1533059209,78.125,15.625
1533059209,86.426,10.742
1533059209,105.957,13.184
1533059209,109.863,17.09
1533059209,94.727,15.625
1533059209,78.613,17.578
1533059209,83.496,20.508
1533059209,95.215,19.043
1533059209,88.867,17.578
1533059209,79.59,18.555
1533059209,67.383,19.043
1533059209,66.895,18.555
1533059209,81.543,15.625
1533059209,79.59,15.625
1533059209,75.195,20.508
1533059209,65.43,23.438
1533059209,57.617,21.973
1533059209,73.73,19.531
1533059209,74.219,15.625
1533059209,69.824,17.578
1533059209,72.266,22.949
1533059209,67.383,19.043
1533059209,82.031,15.625
1533059209,88.379,18.555
1533059209,75.195,18.555
1533059209,62.988,20.508
1533059209,55.176,21.484
1533059209,69.336,19.043
1533059209,76.66,20.508
1533059209,67.383,24.414
1533059209,58.594,22.949
1533059209,48.34,20.02
1533059209,58.105,17.578
1533059209,70.801,15.625
1533059209,65.918,16.113
1533059209,58.594,17.09
1533059209,53.223,20.02
1533059209,61.523,20.508
1533059209,73.242,19.531
1533059209,64.453,19.043
1533059209,55.664,18.066
1533059209,50.293,16.113
1533059209,55.664,14.16
1533059209,68.848,13.672
1533059209,72.266,13.672
1533059209,68.848,14.648
1533059209,53.711,16.602
1533059209,52.734,16.113
1533059209,67.871,16.113
1533059209,65.43,16.113
1533059209,52.734,13.672
1533059209,39.062,12.695
1533059209,37.109,9.277
1533059209,53.711,9.277
1533059209,56.152,13.184
1533059209,44.922,14.16
1533059209,32.715,15.137
1533059209,28.809,13.672
1533059209,41.016,11.23
1533059209,43.945,13.184
1533059209,36.621,13.184
1533059209,27.344,9.766
1533059209,22.461,9.277
1533059209,38.086,11.719
1533059209,46.875,13.672
1533059209,40.527,12.207
1533059209,36.133,11.23
1533059209,31.738,14.648
1533059209,37.109,15.137
1533059209,45.41,14.648
1533059209,41.016,18.555
1533059209,31.25,19.043
1533059209,22.949,16.602
1533059209,33.203,15.137
1533059209,46.387,15.137
1533059209,41.504,16.602
1533059209,35.645,15.625
1533059209,27.832,16.113
1533059209,34.668,19.043
1533059209,45.898,20.02
1533059209,39.551,20.996
1533059209,32.715,22.949
1533059209,23.438,21.973
1533059209,24.902,21.973
1533059209,38.086,22.949
1533059209,31.738,21.484
1533059209,23.438,24.902
1533059209,18.066,24.414
1533059209,20.996,20.02
1533059209,38.086,24.902
1533059209,45.898,26.855
1533059209,41.992,24.414
1533059209,29.785,24.902
1533059209,24.414,26.855
1533059209,33.203,24.902
1533059209,34.668,24.902
1533059209,41.992,30.762
1533059209,50.293,30.762
1533059209,26.367,26.855
1533059209,7.812,20.996
1533059209,17.09,20.508
1533059209,9.277,20.508
1533059209,0,17.09
1533059209,-8.301,15.625
1533059209,-5.371,16.602
1533059209,6.836,17.578
1533059209,2.93,17.578
1533059209,-2.441,17.578
1533059209,0,18.555
1533059209,15.137,15.625
1533059209,24.902,14.16
1533059209,23.926,17.578
1533059209,17.578,15.137
1533059209,5.371,13.184
1533059209,12.695,15.625
1533059209,23.926,17.578
1533059209,20.996,21.484
1533059209,13.184,24.902
1533059209,2.93,23.926
1533059209,14.648,20.508
1533059209,24.902,20.996
1533059209,12.695,20.02
1533059209,8.789,18.066
1533059209,3.418,17.578
1533059209,5.859,16.602
1533059209,26.855,18.555
1533059209,27.344,21.484
1533059209,15.625,21.973
1533059209,9.766,20.996
1533059209,12.207,22.461
1533059210,28.32,25.391
1533059210,29.297,23.926
1533059210,19.043,19.043
1533059210,9.277,13.672
1533059210,4.395,10.254
1533059210,20.508,15.137
1533059210,26.855,19.043
1533059210,19.043,20.996
1533059210,9.766,22.949
1533059210,5.859,21.484
1533059210,21.973,21.484
1533059210,27.832,20.02
1533059210,16.113,17.09
1533059210,6.836,19.531
1533059210,7.324,20.996
1533059210,19.531,20.02
1533059210,25.391,18.066
1533059210,18.555,17.09
1533059210,9.766,17.09
1533059210,8.789,18.066
1533059210,17.09,13.672
1533059210,33.203,14.648
1533059210,37.109,19.531
1533059210,30.273,22.949
1533059210,18.555,25.391
1533059210,22.949,23.438
1533059210,39.062,23.926
1533059210,31.738,26.367
1533059210,20.02,24.902
1533059210,8.789,22.461
1533059210,9.766,20.02
1533059210,23.926,20.02
1533059210,27.832,22.461
1533059210,23.438,25.391
1533059210,9.277,23.926
1533059210,11.719,22.949
1533059210,29.785,25.391
1533059210,28.32,25.879
1533059210,16.602,22.461
1533059210,4.883,19.531
1533059210,9.766,19.531
1533059210,26.855,19.043
1533059210,27.832,18.555
1533059210,20.508,18.066
1533059210,9.277,18.066
1533059210,5.859,18.555
1533059210,20.996,18.555
1533059210,27.832,17.578
1533059210,26.367,18.555
1533059210,20.02,18.555
1533059210,13.184,19.043
1533059210,32.715,19.043
1533059210,41.504,18.066
1533059210,30.762,19.531
1533059210,18.066,16.602
1533059210,8.301,16.602
1533059210,19.043,21.484
1533059210,27.832,22.949
1533059210,20.508,24.414
1533059210,11.23,23.926
1533059210,8.301,22.949
1533059210,20.02,25.879
1533059210,27.344,24.414
1533059210,23.926,23.926
1533059210,16.113,22.949
1533059210,1.465,19.043
1533059210,15.625,20.996
1533059210,32.715,21.973
1533059210,24.414,18.555
1533059210,16.113,18.555
1533059210,8.789,16.113
1533059210,14.16,14.648
1533059210,33.691,20.996
1533059210,37.109,21.973
1533059210,31.738,20.996
1533059210,21.973,23.926
1533059210,20.996,21.973
1533059210,34.18,18.555
1533059210,28.809,18.066
1533059210,14.648,16.602
1533059210,3.418,15.625
1533059210,6.836,15.625
1533059210,23.926,18.066
1533059210,27.832,18.555
1533059210,18.555,14.16
1533059210,6.836,15.625
1533059210,9.277,17.09
1533059210,27.832,16.113
1533059210,29.785,13.672
1533059210,19.043,10.254
1533059210,8.789,11.23
1533059210,4.395,10.254
1533059210,19.531,12.207
1533059210,27.832,16.113
1533059210,24.902,13.672
1533059210,19.043,11.23
1533059210,13.184,9.277
1533059210,26.855,10.742
1533059210,38.574,12.695
1533059210,26.855,11.23
1533059210,16.602,11.719
1533059210,14.648,10.742
1533059210,22.461,14.648
1533059210,25.391,15.137
1533059210,17.578,11.23
1533059210,9.277,15.137
1533059210,1.953,18.066
1533059210,12.695,16.113
1533059210,24.902,18.555
1533059210,20.02,18.555
1533059210,16.602,18.555
1533059210,10.254,20.508
1533059210,10.742,15.625
1533059210,22.949,14.16
1533059210,18.555,14.648
1533059210,10.254,12.207
1533059210,2.441,10.254
1533059210,8.301,12.207
1533059210,31.25,16.602
1533059210,34.18,14.648
1533059210,24.902,14.648
1533059210,15.137,19.531
1533059210,10.742,18.555
1533059210,22.461,18.555
1533059210,24.902,20.02
1533059210,20.508,17.578
1533059210,19.531,17.09
1533059210,18.066,21.484
1533059210,29.297,20.02
1533059210,27.832,19.043
1533059210,21.484,28.32
1533059210,6.836,30.273
1533059210,-6.348,22.949
1533059210,6.836,20.996
1533059210,10.742,16.113
1533059210,4.395,16.602
1533059210,-3.418,22.461
1533059210,-9.766,19.043
1533059210,-2.441,18.066
1533059210,12.207,20.02
1533059210,15.137,20.508
1533059210,6.836,19.531
1533059210,-0.488,19.043
1533059210,8.301,20.02
1533059210,16.113,21.484
1533059210,11.719,19.531
1533059210,6.836,20.02
1533059210,-2.441,20.02
1533059210,3.418,21.973
1533059210,18.066,23.926
1533059210,20.508,23.926
1533059210,17.578,20.996
1533059210,3.418,20.508
1533059210,6.348,24.902
1533059210,22.949,24.902
1533059210,17.09,23.438
1533059210,14.16,25.391
1533059210,8.301,27.344
1533059210,6.836,26.367
1533059210,22.461,23.926
1533059210,24.902,24.414
1533059210,15.625,25.391
1533059210,0.977,27.832
1533059210,-5.859,31.738
1533059210,7.324,30.762
1533059210,8.301,30.762
1533059210,5.859,33.691
1533059210,-2.93,29.785
1533059210,-23.438,20.996
1533059210,-7.812,18.555
1533059210,9.766,20.996
1533059210,0,22.461
1533059210,-17.578,22.949
1533059210,-17.09,21.973
1533059210,3.418,17.09
1533059210,3.906,17.09
1533059210,-0.977,22.461
1533059210,-0.488,22.949
1533059210,-9.277,20.996
1533059210,4.883,21.484
1533059210,16.602,20.996
1533059210,0.488,16.113
1533059210,-4.395,12.207
1533059210,-0.977,12.695
1533059210,12.207,17.578
1533059210,29.785,24.414
1533059210,23.926,24.414
1533059210,11.23,15.625
1533059210,4.883,17.09
1533059210,15.137,23.438
1533059210,25.879,20.508
1533059210,17.578,16.113
1533059210,16.602,13.672
1533059210,7.812,17.578
1533059210,12.207,23.926
1533059210,27.832,25.879
1533059210,18.555,25.391
1533059210,9.766,24.414
1533059210,0,21.973
1533059210,-2.441,18.555
1533059210,13.184,17.09
1533059210,18.555,20.996
1533059210,11.23,26.855
1533059210,-4.395,23.438
1533059210,-12.207,14.16
1533059210,12.207,12.695
1533059210,25.391,20.02
1533059210,20.508,26.367
1533059210,6.348,27.832
1533059210,-1.465,25.879
1533059210,20.02,20.996
1533059210,24.902,22.949
1533059210,13.184,25.879
1533059210,4.395,24.902
1533059210,5.371,26.367
1533059210,16.113,23.926
1533059210,22.949,21.484
1533059210,20.508,21.973
1533059210,11.719,24.902
1533059210,2.441,28.32
1533059210,9.766,24.902
1533059210,19.531,23.438
1533059210,18.066,31.25
1533059210,11.719,34.668
1533059210,-8.789,28.809
1533059210,-2.93,21.973
1533059210,14.648,19.531
1533059210,9.766,21.484
1533059210,4.883,24.902
1533059210,1.953,27.832
1533059210,9.766,26.367
1533059210,21.973,25.879
1533059210,20.996,29.297
1533059210,14.648,31.738
1533059210,3.906,32.227
1533059210,10.742,32.715
1533059210,26.367,31.25
1533059210,18.066,28.809
1533059210,7.324,26.855
1533059210,0.488,26.367
1533059210,0.977,26.855
1533059210,9.277,25.879
1533059210,10.254,25.879
1533059210,6.836,26.855
1533059210,-0.977,25.879
1533059210,-3.418,28.32
1533059210,10.742,31.25
1533059210,18.066,29.785
1533059210,9.277,25.879
1533059210,-3.418,23.926
1533059210,-7.324,25.879
1533059210,6.348,27.344
1533059210,9.766,27.344
1533059210,4.883,28.809
1533059210,-0.977,25.879
1533059210,-9.766,20.996
1533059211,-0.977,21.484
1533059211,6.836,20.02
1533059211,5.371,16.602
1533059211,0.977,20.02
1533059211,-8.789,25.391
1533059211,0.977,27.344
1533059211,10.742,24.414
1533059211,4.395,20.02
1533059211,-1.953,19.531
1533059211,-13.672,17.09
1533059211,-5.371,17.578
1533059211,14.16,23.438
1533059211,10.254,23.438
1533059211,0.977,17.578
1533059211,-1.465,16.602
1533059211,7.324,16.602
1533059211,17.09,11.719
1533059211,15.625,8.789
1533059211,10.254,10.254
1533059211,0,14.648
1533059211,2.93,16.113
1533059211,17.578,15.137
1533059211,17.578,18.066
1533059211,9.766,20.02
1533059211,-1.465,18.555
1533059211,-7.324,17.578
1533059211,6.348,16.602
1533059211,12.695,15.625
1533059211,5.371,13.672
1533059211,-4.395,11.23
1533059211,-9.277,13.184
1533059211,6.348,16.602
1533059211,13.184,16.602
1533059211,7.812,18.555
1533059211,3.418,20.508
1533059211,1.953,19.043
1533059211,14.648,17.09
1533059211,19.043,17.09
1533059211,15.625,20.02
1533059211,3.906,17.09
1533059211,-7.812,13.184
1533059211,7.812,9.277
1533059211,19.531,13.184
1533059211,13.184,21.973
1533059211,3.418,19.043
1533059211,-8.301,15.137
1533059211,-6.348,11.23
1533059211,5.371,10.254
1533059211,6.836,12.207
1533059211,0,16.113
1533059211,-12.207,17.578
1533059211,-6.836,13.184
1533059211,9.766,9.766
1533059211,7.812,11.23
1533059211,-2.441,13.184
1533059211,-16.602,12.207
1533059211,-7.812,12.695
1533059211,14.648,14.16
1533059211,14.648,15.625
1533059211,8.301,17.09
1533059211,-0.488,16.602
1533059211,0,17.09
1533059211,18.555,21.484
1533059211,20.508,24.414
1533059211,3.418,21.484
1533059211,-14.648,17.09
1533059211,-7.812,17.09
1533059211,11.719,18.555
1533059211,13.672,20.02
1533059211,12.207,16.602
1533059211,1.465,13.672
1533059211,0,19.531
1533059211,20.508,20.508
