timestamps,TP9,AF7
1533058200,4.883,22.949
1533058200,19.531,22.461
1533058200,20.508,19.531
1533058200,30.273,14.16
1533058200,24.902,22.461
1533058200,17.578,25.391
1533058200,18.555,25.879
1533058200,30.273,30.273
1533058200,44.922,23.926
1533058200,28.809,21.484
1533058200,14.648,29.297
1533058200,22.461,26.855
1533058200,38.086,25.391
1533058200,39.551,27.344
1533058200,17.09,24.902
1533058200,9.766,24.902
1533058200,9.277,24.414
1533058200,12.207,26.367
1533058200,32.227,27.344
1533058200,21.973,21.484
1533058200,6.348,18.066
1533058200,9.277,18.066
1533058200,19.531,19.043
1533058200,31.738,19.531
1533058200,28.809,20.02
1533058200,25.391,20.508
1533058200,21.484,20.02
1533058200,27.344,20.996
1533058200,49.316,20.02
1533058200,47.363,18.066
1533058200,31.738,17.09
1533058200,19.043,14.16
1533058200,39.062,12.207
1533058200,49.805,16.602
1533058200,35.645,15.137
1533058200,25.391,9.277
1533058200,12.695,10.254
1533058200,31.25,13.672
1533058200,34.668,12.695
1533058200,21.484,8.789
1533058200,16.602,5.859
1533058200,2.93,6.348
1533058200,21.484,9.277
1533058200,39.062,15.625
1533058200,30.273,7.324
1533058200,30.273,2.93
1533058200,28.32,10.254
1533058200,29.297,8.301
1533058200,39.551,14.16
1533058200,41.504,18.066
1533058200,33.203,11.23
1533058200,21.484,12.695
1533058200,18.066,23.438
1533058200,31.25,22.461
1533058200,37.109,16.113
1533058200,25.391,15.625
1533058200,13.672,21.484
1533058200,20.02,23.438
1533058200,23.438,19.531
1533058200,26.367,22.949
1533058200,27.832,19.531
1533058200,12.695,12.207
1533058200,-7.812,11.719
1533058200,3.906,16.602
1533058200,25.879,29.297
1533058200,17.09,32.715
1533058200,12.207,29.297
1533058200,7.812,29.297
1533058200,12.207,24.902
1533058200,23.926,20.02
1533058200,15.625,20.996
1533058200,20.508,22.461
1533058200,14.16,21.973
1533058200,4.883,14.648
1533058200,25.391,15.625
1533058200,16.113,28.32
1533058200,0.488,31.25
1533058200,-4.395,26.855
1533058200,5.371,27.832
1533058200,24.414,31.738
1533058200,13.184,31.738
1533058200,-0.488,27.344
1533058200,0,19.531
1533058200,13.672,15.137
1533058200,28.32,20.508
1533058200,33.691,29.297
1533058200,28.809,34.18
1533058200,13.672,34.668
1533058200,12.695,31.25
1533058200,51.758,30.762
1533058200,52.734,34.668
1533058200,14.16,35.156
1533058200,4.883,33.203
1533058200,4.395,30.273
1533058200,15.625,28.809
1533058200,20.996,30.273
1533058200,16.113,23.438
1533058200,21.973,11.719
1533058200,1.465,-4.883
1533058200,-4.883,-14.16
1533058200,-3.906,-10.742
1533058200,-13.672,-17.578
1533058200,-35.156,-23.926
1533058200,-32.715,-19.531
1533058200,-24.414,-12.207
1533058200,-24.414,-11.23
1533058200,-42.969,-16.602
1533058200,-61.035,-9.277
1533058200,-56.152,-0.977
1533058200,-41.016,2.93
1533058200,-27.344,2.93
1533058200,-40.527,1.953
1533058200,-53.711,1.465
1533058200,-57.129,-0.977
1533058200,-56.641,-2.93
1533058200,-47.363,-4.883
1533058200,-50.293,-10.254
1533058200,-70.312,-14.648
1533058200,-64.941,-11.23
1533058200,-53.223,-3.418
1533058200,-54.688,2.441
1533058200,-43.945,7.812
1533058200,-51.27,10.254
1533058200,-59.082,8.789
1533058200,-53.711,5.371
1533058200,-32.227,6.836
1533058200,-39.551,13.184
1533058200,-49.805,19.531
1533058200,-41.016,22.461
1533058200,-40.527,19.531
1533058200,-33.203,17.09
1533058200,-23.438,15.137
1533058200,-34.18,7.812
1533058200,-39.062,5.859
1533058200,-35.156,9.766
1533058200,-37.109,11.23
1533058200,-30.273,10.742
1533058200,-27.344,14.648
1533058200,-38.574,12.207
1533058200,-38.574,8.301
1533058200,-16.602,11.719
1533058200,-9.277,15.137
1533058200,-17.578,23.926
1533058200,-26.367,32.715
1533058200,-27.344,34.668
1533058200,-11.719,39.062
1533058200,1.465,44.434
1533058200,-7.812,44.922
1533058200,-18.555,38.086
1533058200,-12.207,37.598
1533058200,11.719,40.039
1533058200,19.531,37.598
1533058200,6.348,30.273
1533058200,11.719,26.367
1533058200,12.695,21.973
1533058200,22.461,17.09
1533058200,44.922,20.508
1533058200,36.621,25.391
1533058200,36.133,25.879
1533058200,50.781,20.996
1533058200,59.57,14.16
1533058200,73.242,10.254
1533058200,84.961,10.254
1533058200,77.637,7.324
1533058200,59.082,0.977
1533058200,62.988,-3.906
1533058200,80.566,-6.836
1533058200,89.844,-10.254
1533058200,92.773,-4.395
1533058200,87.891,2.93
1533058200,85.938,2.441
1533058200,105.469,5.859
1533058200,120.117,5.859
1533058200,101.074,0.977
1533058200,79.59,-5.859
1533058200,85.449,-7.324
1533058200,98.633,1.465
1533058200,104.004,6.836
1533058200,91.797,3.418
1533058200,85.449,2.93
1533058200,91.797,3.906
1533058201,97.656,5.371
1533058201,107.422,7.324
1533058201,103.516,8.789
1533058201,84.961,9.277
1533058201,81.055,6.348
1533058201,89.844,11.23
1533058201,96.191,17.578
1533058201,91.797,21.484
1533058201,85.938,26.855
1533058201,79.59,24.902
1533058201,81.055,21.973
1533058201,94.727,18.555
1533058201,93.75,17.09
1533058201,74.707,16.602
1533058201,67.871,16.113
1533058201,72.754,18.066
1533058201,86.914,17.578
1533058201,80.078,18.066
1533058201,58.105,16.113
1533058201,57.617,10.254
1533058201,63.965,12.207
1533058201,70.312,19.531
1533058201,70.801,19.531
1533058201,62.988,14.648
1533058201,54.688,12.695
1533058201,69.824,14.648
1533058201,82.52,15.137
1533058201,62.5,13.184
1533058201,58.105,12.207
1533058201,46.875,9.766
1533058201,41.992,8.301
1533058201,50.781,10.742
1533058201,47.852,8.301
1533058201,42.969,13.184
1533058201,32.715,23.926
1533058201,24.902,22.461
1533058201,40.527,18.555
1533058201,48.828,20.508
1533058201,32.227,20.508
1533058201,28.809,18.555
1533058201,32.715,19.531
1533058201,37.109,23.438
1533058201,45.41,25.879
1533058201,38.574,19.531
1533058201,26.855,20.02
1533058201,24.902,19.531
1533058201,38.086,16.602
1533058201,53.223,20.508
1533058201,48.34,22.949
1533058201,33.203,23.438
1533058201,31.738,21.973
1533058201,44.922,19.531
1533058201,50.293,19.043
1533058201,44.434,20.508
1533058201,29.297,18.066
1533058201,16.602,14.16
1533058201,25.879,17.578
1533058201,39.062,18.066
1533058201,36.621,16.113
1533058201,29.297,15.137
1533058201,23.438,7.324
1533058201,26.855,6.836
1533058201,38.574,10.742
1533058201,46.387,7.812
1533058201,34.668,5.859
1533058201,15.137,5.371
1533058201,26.855,1.953
1533058201,53.711,3.418
1533058201,44.922,5.859
1533058201,17.09,1.465
1533058201,15.625,-0.977
1533058201,28.32,4.395
1533058201,44.922,7.812
1533058201,51.758,6.348
1533058201,45.41,4.883
1533058201,42.969,5.371
1533058201,40.527,2.441
1533058201,53.711,-1.953
1533058201,61.523,1.465
1533058201,50.781,4.883
1533058201,43.457,7.324
1533058201,40.039,7.324
1533058201,44.922,6.348
1533058201,53.223,8.789
1533058201,48.828,11.719
1533058201,35.156,16.602
1533058201,28.32,22.949
1533058201,35.156,25.391
1533058201,48.828,24.414
1533058201,39.551,19.531
1533058201,14.16,13.184
1533058201,2.441,9.766
1533058201,8.789,15.625
1533058201,31.25,20.508
1533058201,32.715,21.484
1533058201,16.113,20.02
1533058201,10.254,13.672
1533058201,17.578,15.625
1533058201,33.203,21.484
1533058201,36.621,18.555
1533058201,25.391,17.578
1533058201,20.996,22.461
1533058201,30.273,26.367
1533058201,45.898,30.273
1533058201,48.34,32.715
1533058201,39.551,35.645
1533058201,30.762,36.133
1533058201,32.715,34.18
1533058201,48.828,34.668
1533058201,42.48,34.18
1533058201,27.344,35.156
1533058201,24.414,35.645
1533058201,28.32,34.668
1533058201,32.715,33.691
1533058201,22.461,34.668
1533058201,16.113,35.156
1533058201,10.742,31.25
1533058201,13.184,30.762
1533058201,26.367,30.762
1533058201,30.273,28.32
1533058201,21.484,32.227
1533058201,10.254,37.598
1533058201,18.066,38.574
1533058201,26.367,38.086
1533058201,32.227,35.645
1533058201,31.25,32.227
1533058201,18.066,32.715
1533058201,16.113,31.25
1533058201,25.391,26.367
1533058201,36.133,25.391
1533058201,35.156,26.855
1533058201,29.297,22.461
1533058201,16.113,20.508
1533058201,22.949,20.02
1533058201,38.574,19.531
1533058201,36.621,24.414
1533058201,32.715,24.414
1533058201,28.809,19.043
1533058201,29.297,17.09
1533058201,51.27,17.578
1533058201,58.105,22.461
1533058201,23.438,22.461
1533058201,11.23,27.344
1533058201,17.09,33.203
1533058201,32.227,27.344
1533058201,20.02,29.785
1533058201,-1.465,34.668
1533058201,3.418,29.297
1533058201,-1.465,23.438
1533058201,11.719,23.926
1533058201,23.926,22.461
1533058201,15.137,20.508
1533058201,6.348,17.09
1533058201,6.348,14.648
1533058201,16.602,17.578
1533058201,24.902,22.461
1533058201,19.043,22.461
1533058201,4.883,21.484
1533058201,-0.977,19.043
1533058201,19.531,15.137
1533058201,34.668,17.578
1533058201,26.367,23.438
1533058201,18.066,24.902
1533058201,15.137,25.879
1533058201,20.996,27.832
1533058201,27.344,23.438
1533058201,27.832,20.996
1533058201,21.973,24.902
1533058201,14.16,26.367
1533058201,27.832,27.344
1533058201,43.457,29.297
1533058201,29.297,22.461
1533058201,15.625,17.09
1533058201,11.23,17.09
1533058201,20.02,21.484
1533058201,38.086,24.902
1533058201,34.18,20.02
1533058201,20.508,16.113
1533058201,10.742,20.02
1533058201,16.602,19.531
1533058201,35.645,25.391
1533058201,35.645,31.738
1533058201,27.344,27.832
1533058201,21.973,26.855
1533058201,23.926,25.879
1533058201,37.598,24.414
1533058201,29.785,24.902
1533058201,26.855,23.438
1533058201,32.227,25.879
1533058201,13.184,20.508
1533058201,17.09,17.09
1533058201,21.484,25.879
1533058201,11.719,21.973
1533058201,11.23,11.719
1533058201,-8.301,16.602
1533058201,6.348,24.414
1533058201,31.738,27.832
1533058201,13.184,31.738
1533058201,2.93,30.762
1533058201,9.277,28.809
1533058201,19.043,27.344
1533058201,32.715,27.344
1533058201,34.668,24.902
1533058201,17.09,22.461
1533058201,8.301,20.508
1533058201,22.949,20.996
1533058201,33.203,25.391
1533058201,26.367,25.879
1533058201,18.066,28.809
1533058201,13.672,29.785
1533058201,16.113,29.785
1533058201,24.902,26.367
1533058201,25.879,24.902
1533058201,16.113,27.832
1533058201,8.301,28.809
1533058201,11.23,30.273
1533058201,18.555,27.832
1533058201,16.113,30.273
1533058201,8.301,33.691
1533058201,10.254,33.203
1533058201,13.184,39.062
1533058201,21.484,41.016
1533058201,30.273,40.039
1533058201,23.926,41.016
1533058201,16.602,40.039
1533058201,20.508,34.668
1533058201,27.832,30.762
1533058201,24.902,32.715
1533058201,17.09,31.25
1533058201,16.602,26.855
1533058201,15.137,25.391
1533058201,40.527,34.18
1533058201,48.828,37.109
1533058201,11.719,25.391
1533058201,-0.488,19.043
1533058201,9.766,15.625
1533058201,23.438,14.648
1533058201,35.156,14.16
1533058201,27.344,11.719
1533058201,25.391,10.742
1533058201,26.855,4.395
1533058201,32.715,5.859
1533058201,47.363,10.254
1533058201,41.504,6.836
1533058201,30.762,6.348
1533058201,26.367,8.789
1533058201,40.527,10.742
1533058201,54.688,15.137
1533058201,44.434,20.996
1533058201,31.738,22.949
1533058201,27.344,18.555
1533058201,32.227,18.555
1533058201,41.504,17.578
1533058201,39.551,9.766
1533058201,27.344,4.395
1533058201,17.09,6.836
1533058202,21.484,8.789
1533058202,41.992,15.137
1533058202,40.039,15.137
1533058202,23.926,12.207
1533058202,23.438,16.113
1533058202,26.855,19.043
1533058202,42.48,20.02
1533058202,41.016,20.02
1533058202,23.926,15.137
1533058202,19.043,9.277
1533058202,20.996,9.766
1533058202,42.48,12.695
1533058202,53.711,17.09
1533058202,29.785,21.973
1533058202,9.766,23.438
1533058202,14.648,21.484
1533058202,28.32,22.949
1533058202,27.832,24.414
1533058202,20.02,24.902
1533058202,9.766,21.973
1533058202,0,18.555
1533058202,10.254,20.996
1533058202,18.066,18.066
1533058202,5.859,16.113
1533058202,-1.953,14.648
1533058202,-1.465,20.996
1533058202,12.207,29.297
1533058202,17.578,27.832
1533058202,10.742,25.391
1533058202,10.254,22.949
1533058202,1.465,22.461
1533058202,10.254,25.879
1533058202,30.273,28.809
1533058202,25.391,28.809
1533058202,13.184,30.273
1533058202,14.16,32.227
1533058202,21.484,34.18
1533058202,27.832,35.156
1533058202,22.949,31.738
1533058202,11.23,30.273
1533058202,12.695,27.344
1533058202,23.438,25.879
1533058202,32.227,27.344
1533058202,27.344,27.344
1533058202,17.09,30.273
1533058202,15.625,29.785
1533058202,18.066,22.461
1533058202,32.227,17.578
1533058202,33.691,15.625
1533058202,18.066,18.555
1533058202,7.324,22.461
1533058202,11.719,25.391
1533058202,28.809,28.809
1533058202,31.25,31.25
1533058202,15.137,32.227
1533058202,12.207,29.785
1533058202,15.137,32.227
1533058202,28.32,33.203
1533058202,39.551,29.297
1533058202,27.344,26.855
1533058202,15.625,27.344
1533058202,13.672,31.738
1533058202,27.832,34.18
1533058202,36.621,28.809
1533058202,23.438,24.414
1533058202,17.578,27.344
1533058202,18.066,24.414
1533058202,30.273,24.414
1533058202,32.227,32.227
1533058202,15.137,31.25
1533058202,6.836,26.367
1533058202,-4.395,28.809
1533058202,6.836,30.762
1533058202,18.555,24.902
1533058202,8.789,23.926
1533058202,3.906,26.367
1533058202,1.465,24.902
1533058202,14.16,27.344
1533058202,29.785,28.32
1533058202,23.926,27.344
1533058202,19.043,28.809
1533058202,12.695,23.926
1533058202,17.09,21.484
1533058202,32.715,25.879
1533058202,29.785,27.344
1533058202,16.602,32.715
1533058202,6.836,34.668
1533058202,9.277,31.25
1533058202,20.996,29.297
1533058202,19.531,24.414
1533058202,12.207,21.973
1533058202,6.836,23.438
1533058202,5.371,26.367
1533058202,22.461,31.25
1533058202,30.273,36.621
1533058202,18.555,35.645
1533058202,8.789,36.133
1533058202,8.789,35.645
1533058202,18.555,38.574
1533058202,26.855,38.086
1533058202,13.184,28.32
1533058202,0,23.438
1533058202,2.441,25.879
1533058202,16.113,26.855
1533058202,20.996,24.414
1533058202,6.836,21.973
1533058202,8.301,21.484
1533058202,10.254,20.508
1533058202,18.066,18.555
1533058202,30.762,20.508
1533058202,25.879,19.531
1533058202,18.555,15.625
1533058202,17.578,15.137
1533058202,26.367,18.555
1533058202,40.527,21.973
1533058202,34.18,20.02
1533058202,21.973,20.02
1533058202,11.23,22.949
1533058202,14.648,20.508
1533058202,32.715,18.066
1533058202,27.832,20.02
1533058202,11.719,19.531
1533058202,4.395,16.602
1533058202,14.16,19.043
1533058202,29.785,20.996
1533058202,30.762,18.066
1533058202,19.531,14.648
1533058202,12.207,16.602
1533058202,23.438,20.508
1533058202,38.086,23.438
1533058202,33.203,27.344
1533058202,24.902,30.273
1533058202,21.484,32.715
1533058202,20.508,33.203
1533058202,35.645,34.18
1533058202,40.527,33.691
1533058202,26.855,31.738
1533058202,17.578,30.273
1533058202,11.719,28.32
1533058202,21.973,31.738
1533058202,30.273,33.203
1533058202,24.902,29.785
1533058202,20.02,26.855
1533058202,17.09,27.344
1533058202,24.902,26.367
1533058202,32.715,21.484
1533058202,24.902,20.02
1533058202,15.137,19.531
1533058202,9.277,17.09
1533058202,22.949,21.484
1533058202,36.621,27.344
1533058202,31.25,32.227
1533058202,14.16,26.855
1533058202,-8.301,17.578
1533058202,0.977,15.625
1533058202,17.578,8.789
1533058202,7.324,3.418
1533058202,-4.883,0.977
1533058202,-3.418,3.418
1533058202,7.324,6.836
1533058202,20.996,6.348
1533058202,20.508,7.324
1533058202,10.742,7.324
1533058202,2.93,6.836
1533058202,3.906,4.883
1533058202,17.09,8.301
1533058202,25.879,14.16
1533058202,22.461,20.508
1533058202,12.207,20.02
1533058202,20.508,13.184
1533058202,39.551,14.648
1533058202,39.551,14.16
1533058202,29.297,10.742
1533058202,22.461,14.16
1533058202,19.531,17.09
1533058202,24.414,14.16
1533058202,34.668,19.043
1533058202,26.367,22.461
1533058202,11.23,18.066
1533058202,10.254,17.578
1533058202,23.438,20.996
1533058202,33.203,25.391
1533058202,23.926,25.879
1533058202,8.301,23.926
1533058202,8.301,26.367
1533058202,23.926,35.156
1533058202,37.598,33.691
1533058202,27.344,23.926
1533058202,15.625,21.973
1533058202,10.254,21.973
1533058202,16.602,22.949
1533058202,28.809,22.461
1533058202,22.949,14.648
1533058202,13.672,16.113
1533058202,11.719,21.973
1533058202,21.973,20.508
1533058202,36.621,19.531
1533058202,26.367,20.02
1533058202,10.254,20.996
1533058202,4.883,18.555
1533058202,2.93,17.09
1533058202,17.09,21.484
1533058202,17.578,19.531
1533058202,1.953,12.695
1533058202,0.977,9.277
1533058202,3.906,8.789
1533058202,17.09,11.23
1533058202,17.09,11.719
1533058202,1.953,12.695
1533058202,-2.93,19.043
1533058202,4.395,22.461
1533058202,18.066,20.508
1533058202,15.137,20.02
1533058202,8.789,21.484
1533058202,11.23,17.09
1533058202,9.277,12.695
1533058202,16.113,14.648
1533058202,25.391,17.09
1533058202,19.043,20.508
1533058202,15.625,23.438
1533058202,17.578,23.438
1533058202,29.297,26.367
1533058202,39.062,27.832
1533058202,28.32,26.855
1533058202,19.043,26.367
1533058202,18.555,23.438
1533058202,37.598,21.973
1533058202,46.387,22.949
1533058202,21.973,27.344
1533058202,4.395,27.344
1533058202,-1.953,25.391
1533058202,5.859,33.203
1533058202,21.973,38.574
1533058202,18.066,34.668
1533058202,8.301,32.715
1533058202,4.883,34.18
1533058202,14.16,39.062
1533058202,27.832,42.48
1533058202,20.996,39.062
1533058202,12.695,33.691
1533058202,5.859,30.273
1533058202,10.254,32.715
1533058202,24.414,37.598
1533058202,18.555,36.133
1533058202,11.719,35.156
1533058202,9.766,34.18
1533058202,13.672,33.203
1533058202,22.949,34.18
1533058202,20.02,36.621
1533058202,5.859,35.156
1533058202,0.977,31.738
1533058202,7.812,31.25
1533058202,20.508,29.785
1533058202,20.02,30.762
1533058202,13.184,28.809
1533058202,5.859,22.949
1533058203,1.953,23.438
1533058203,15.625,25.879
1533058203,20.02,22.949
1533058203,7.324,20.02
1533058203,-3.418,19.043
1533058203,-5.859,18.066
1533058203,10.742,17.09
1533058203,22.949,15.137
1533058203,15.625,11.719
1533058203,8.789,17.09
1533058203,10.742,23.926
1533058203,28.809,27.832
1533058203,37.109,29.785
1533058203,27.344,25.391
1533058203,20.02,23.438
1533058203,18.066,24.414
1533058203,20.996,20.996
1533058203,28.809,18.555
1533058203,22.461,20.996
1533058203,10.254,23.438
1533058203,10.742,20.996
1533058203,23.926,20.02
1533058203,38.086,20.02
1533058203,35.645,20.996
1533058203,22.461,21.484
1533058203,18.066,18.066
1533058203,25.879,19.043
1533058203,36.621,21.973
1533058203,27.832,22.461
1533058203,17.578,22.461
1533058203,11.23,19.531
1533058203,9.766,20.02
1533058203,22.461,22.949
1533058203,23.438,21.973
1533058203,10.742,22.461
1533058203,5.371,19.531
1533058203,12.695,20.02
1533058203,23.438,16.602
1533058203,22.461,15.137
1533058203,17.578,19.043
1533058203,18.066,17.578
1533058203,17.578,20.996
1533058203,28.809,24.902
1533058203,35.156,18.555
1533058203,23.438,11.719
1533058203,11.23,15.625
1533058203,12.695,20.02
1533058203,25.879,19.043
1533058203,23.926,19.531
1533058203,12.695,17.578
1533058203,8.301,20.02
1533058203,5.371,19.531
1533058203,20.508,17.09
1533058203,34.18,16.602
1533058203,28.809,15.625
1533058203,20.02,20.02
1533058203,16.602,22.461
1533058203,28.809,23.926
1533058203,38.574,22.949
1533058203,36.133,17.578
1533058203,27.832,20.02
1533058203,7.324,25.391
1533058203,12.207,25.391
1533058203,34.668,23.926
1533058203,35.156,25.391
1533058203,27.832,28.809
1533058203,20.508,27.344
1533058203,20.02,23.926
1533058203,39.062,24.902
1533058203,38.086,24.414
1533058203,19.043,24.414
1533058203,15.137,23.438
1533058203,17.578,25.391
1533058203,24.414,24.902
1533058203,26.367,21.484
1533058203,13.672,20.508
1533058203,6.836,22.949
1533058203,11.719,24.902
1533058203,23.438,20.02
1533058203,27.344,17.09
1533058203,17.578,20.508
1533058203,3.418,18.066
1533058203,-3.906,15.137
1533058203,14.16,17.09
1533058203,24.902,18.555
1533058203,10.254,18.066
1533058203,5.859,17.09
1533058203,9.766,17.09
1533058203,21.484,20.996
1533058203,26.855,21.484
1533058203,19.531,20.02
1533058203,17.578,17.09
1533058203,14.648,16.113
1533058203,17.578,19.043
1533058203,28.32,17.578
1533058203,22.461,16.602
1533058203,12.695,17.578
1533058203,7.812,15.625
1533058203,12.207,11.719
1533058203,29.785,18.555
1533058203,23.926,22.949
1533058203,10.254,18.066
1533058203,5.859,17.09
1533058203,13.672,21.973
1533058203,28.32,23.438
1533058203,25.391,25.879
1533058203,20.996,28.809
1533058203,13.184,25.879
1533058203,15.625,27.832
1533058203,32.715,30.762
1533058203,26.367,27.344
1533058203,13.672,26.367
1533058203,14.648,27.832
1533058203,16.113,26.367
1533058203,22.949,22.949
1533058203,24.902,21.484
1533058203,13.672,18.066
1533058203,6.348,17.09
1533058203,10.254,20.02
1533058203,30.762,22.461
1533058203,36.133,24.414
1533058203,11.23,20.996
1533058203,7.812,17.09
1533058203,14.16,15.625
1533058203,19.531,17.09
1533058203,18.555,19.043
1533058203,16.602,21.973
1533058203,15.625,24.902
1533058203,8.301,20.508
1533058203,15.625,20.508
1533058203,26.367,25.391
1533058203,16.602,25.879
1533058203,12.207,20.508
1533058203,16.113,16.602
1533058203,23.438,19.043
1533058203,37.598,19.531
1533058203,30.273,18.555
1533058203,12.207,14.648
1533058203,1.953,13.184
1533058203,7.812,16.602
1533058203,20.996,19.531
1533058203,19.043,19.531
1533058203,11.719,17.578
1533058203,10.742,16.602
1533058203,19.531,18.555
1533058203,28.809,22.461
1533058203,25.879,21.973
1533058203,17.09,19.043
1533058203,10.254,18.555
1533058203,19.043,20.996
1533058203,33.691,20.996
1533058203,33.203,18.066
1533058203,26.367,17.09
1533058203,22.461,20.996
1533058203,21.973,23.438
1533058203,32.715,21.973
1533058203,33.691,19.531
1533058203,21.973,19.043
1533058203,15.625,19.043
1533058203,11.719,17.09
1533058203,25.879,22.461
1533058203,34.668,22.949
1533058203,19.043,17.09
1533058203,14.16,18.066
1533058203,10.742,21.484
1533058203,20.508,21.973
1533058203,29.297,23.926
1533058203,18.555,26.367
1533058203,14.648,20.02
1533058203,7.324,17.09
1533058203,10.742,20.996
1533058203,23.438,21.973
1533058203,19.043,23.926
1533058203,7.812,25.879
1533058203,5.859,27.832
1533058203,17.09,27.832
1533058203,21.973,23.926
1533058203,4.395,18.066
1533058203,-6.836,17.09
1533058203,0,20.996
1533058203,12.695,24.414
1533058203,23.926,23.926
1533058203,20.508,22.949
1533058203,13.184,25.391
1533058203,7.812,26.367
1533058203,11.23,21.973
1533058203,28.32,17.09
1533058203,32.227,15.137
1533058203,22.461,13.672
1533058203,18.066,16.113
1533058203,21.484,15.137
1533058203,36.133,12.207
1533058203,39.062,13.672
1533058203,23.438,17.578
1533058203,12.207,17.578
1533058203,10.254,16.602
1533058203,21.973,20.508
1533058203,24.414,29.297
1533058203,11.23,26.367
1533058203,3.906,23.438
1533058203,8.789,27.344
1533058203,20.996,23.438
1533058203,26.367,26.367
1533058203,18.555,27.344
1533058203,10.742,25.391
1533058203,11.719,28.32
1533058203,24.414,30.273
1533058203,32.227,29.297
1533058203,22.461,28.32
1533058203,16.602,23.926
1533058203,10.254,15.625
1533058203,20.996,15.625
1533058203,32.715,16.113
1533058203,19.043,17.09
1533058203,9.277,16.113
1533058203,9.277,14.16
1533058203,15.137,15.137
1533058203,28.32,23.926
1533058203,24.414,28.809
1533058203,13.184,24.414
1533058203,7.812,23.438
1533058203,17.578,23.926
1533058203,36.621,22.949
1533058203,34.18,28.32
1533058203,20.508,26.367
1533058203,5.859,18.066
1533058203,6.836,23.438
1533058203,28.809,22.949
1533058203,24.414,16.113
1533058203,6.348,15.137
1533058203,3.418,11.719
1533058203,15.625,13.672
1533058203,38.086,18.555
1533058203,42.969,20.02
1533058203,32.227,23.438
1533058203,25.391,22.949
1533058203,23.438,22.461
1533058203,41.016,22.461
1533058203,44.434,20.02
1533058203,26.855,15.625
1533058203,24.414,14.648
1533058203,21.484,20.02
1533058203,24.902,17.578
1533058203,34.668,14.648
1533058203,22.949,17.578
1533058203,14.16,17.09
1533058203,17.578,19.531
1533058203,28.809,23.438
1533058203,40.527,21.973
1533058203,31.25,21.484
1533058203,21.973,20.02
1533058203,22.949,19.531
1533058203,37.109,22.949
1533058203,46.387,21.973
1533058203,32.715,20.996
1533058203,20.508,20.508
1533058204,15.625,19.043
1533058204,26.855,18.066
1533058204,39.062,19.531
1533058204,32.715,19.043
1533058204,22.461,17.578
1533058204,19.531,23.438
1533058204,30.762,29.785
1533058204,42.969,33.203
1533058204,28.809,31.25
1533058204,12.695,26.367
1533058204,9.766,26.855
1533058204,12.207,30.762
1533058204,27.344,31.25
1533058204,28.809,28.32
1533058204,21.484,24.414
1533058204,18.555,19.043
1533058204,19.043,19.531
1533058204,25.391,20.508
1533058204,25.879,16.113
1533058204,21.484,14.16
1533058204,14.16,12.695
1533058204,15.625,15.137
1533058204,35.156,18.066
1533058204,34.668,18.555
1533058204,25.391,19.531
1533058204,26.367,17.578
1533058204,16.113,16.602
1533058204,23.438,17.09
1533058204,39.062,19.043
1533058204,33.203,19.531
1533058204,25.391,22.949
1533058204,21.973,28.32
1533058204,37.109,27.344
1533058204,47.363,24.902
1533058204,35.645,25.879
1533058204,28.32,25.879
1533058204,25.879,25.391
1533058204,34.668,25.391
1533058204,47.852,25.879
1533058204,44.434,21.973
1533058204,26.367,15.625
1533058204,10.254,13.184
1533058204,25.879,14.648
1533058204,41.016,11.719
1533058204,26.855,11.719
1533058204,19.531,13.672
1533058204,18.555,9.766
1533058204,19.043,9.766
1533058204,34.668,15.137
1533058204,32.715,13.672
1533058204,16.602,15.625
1533058204,16.602,19.043
1533058204,29.785,20.508
1533058204,45.898,20.508
1533058204,40.039,17.09
1533058204,27.344,13.184
1533058204,27.344,9.766
1533058204,29.297,10.254
1533058204,38.574,10.742
1533058204,39.551,12.207
1533058204,25.391,13.672
1533058204,18.066,18.555
1533058204,19.043,20.996
1533058204,25.879,20.508
1533058204,27.832,20.996
1533058204,22.461,20.02
1533058204,14.16,20.02
1533058204,8.789,19.043
1533058204,26.367,17.09
1533058204,34.18,17.09
1533058204,18.066,13.184
1533058204,12.695,14.16
1533058204,16.602,18.066
1533058204,26.855,21.484
1533058204,28.32,21.973
1533058204,9.766,13.184
1533058204,2.93,10.254
1533058204,5.859,12.695
1533058204,14.16,11.23
1533058204,28.32,11.23
1533058204,20.02,15.625
1533058204,9.277,15.625
1533058204,9.766,16.602
1533058204,20.508,16.113
1533058204,30.762,11.719
1533058204,26.367,16.602
1533058204,14.16,17.09
1533058204,6.836,11.23
1533058204,15.137,13.184
1533058204,33.203,15.137
1533058204,35.156,17.09
1533058204,25.391,19.531
1533058204,15.625,18.066
1533058204,19.531,20.02
1533058204,32.227,21.973
1533058204,27.832,22.461
1533058204,18.555,24.902
1533058204,10.254,22.461
1533058204,10.254,17.578
1533058204,24.414,17.578
1533058204,32.227,22.949
1533058204,19.043,25.879
1533058204,9.277,21.973
1533058204,12.695,22.949
1533058204,22.949,25.391
1533058204,28.809,28.809
1533058204,25.391,31.25
1533058204,19.043,30.762
1533058204,17.09,29.785
1533058204,31.25,27.344
1533058204,36.621,28.809
1533058204,27.344,29.785
1533058204,20.508,30.762
1533058204,25.391,31.738
1533058204,40.039,31.738
1533058204,41.992,30.762
1533058204,22.949,29.297
1533058204,8.301,27.344
1533058204,6.836,29.297
1533058204,16.113,29.785
1533058204,25.879,26.367
1533058204,15.625,24.414
1533058204,7.324,23.926
1533058204,5.371,21.973
1533058204,18.555,25.391
1533058204,32.227,29.297
1533058204,23.438,25.391
1533058204,17.09,20.996
1533058204,11.719,23.438
1533058204,17.578,22.461
1533058204,28.809,19.531
1533058204,20.996,20.996
1533058204,17.09,20.02
1533058204,17.578,16.602
1533058204,16.602,16.602
1533058204,28.32,16.602
1533058204,26.855,13.672
1533058204,15.137,11.23
1533058204,7.324,9.277
1533058204,9.766,7.324
1533058204,21.973,9.766
1533058204,23.438,15.137
1533058204,18.555,16.602
1533058204,12.207,19.531
1533058204,13.672,23.926
1533058204,31.25,22.461
1533058204,31.738,22.949
1533058204,12.695,22.461
1533058204,6.836,20.996
1533058204,9.766,21.484
1533058204,28.809,19.531
1533058204,33.203,17.578
1533058204,19.531,20.996
1533058204,18.555,23.926
1533058204,16.113,23.438
1533058204,23.926,23.438
1533058204,32.715,19.531
1533058204,24.414,18.555
1533058204,23.438,21.973
1533058204,25.879,22.461
1533058204,40.527,21.484
1533058204,53.711,23.926
1533058204,41.016,25.391
1533058204,32.227,21.484
1533058204,23.926,18.066
1533058204,23.926,16.602
1533058204,32.227,15.137
1533058204,27.344,15.625
1533058204,20.02,18.555
1533058204,13.184,23.438
1533058204,19.531,29.297
1533058204,39.062,32.227
1533058204,32.227,30.762
1533058204,21.973,29.297
1533058204,19.043,27.832
1533058204,20.02,25.391
1533058204,38.086,25.879
1533058204,38.086,30.273
1533058204,25.879,34.18
1533058204,21.973,34.668
1533058204,24.902,32.715
1533058204,39.551,36.621
1533058204,38.086,39.551
1533058204,20.508,34.668
1533058204,11.23,30.762
1533058204,15.137,29.297
1533058204,29.785,31.738
1533058204,28.32,31.738
1533058204,15.137,28.32
1533058204,19.043,26.367
1533058204,23.438,25.879
1533058204,27.344,25.879
1533058204,32.715,25.391
1533058204,26.367,21.484
1533058204,14.16,19.531
1533058204,10.254,21.484
1533058204,24.414,22.949
1533058204,34.18,25.391
1533058204,20.508,26.367
1533058204,12.695,24.414
1533058204,15.137,22.949
1533058204,19.531,23.926
1533058204,28.809,26.855
1533058204,20.508,24.414
1533058204,7.812,21.973
1533058204,6.836,23.438
1533058204,14.16,20.508
1533058204,23.926,19.043
1533058204,20.508,22.949
1533058204,12.207,22.949
1533058204,6.836,20.508
1533058204,9.277,18.066
1533058204,27.344,18.555
1533058204,25.391,18.555
1533058204,13.672,19.531
1533058204,12.207,19.531
1533058204,16.113,22.461
1533058204,27.832,25.879
1533058204,27.344,25.391
1533058204,17.09,24.414
1533058204,6.836,23.438
1533058204,10.742,25.879
1533058204,24.902,28.809
1533058204,25.391,26.855
1533058204,16.113,25.391
1533058204,11.719,25.879
1533058204,11.23,27.832
1533058204,20.508,31.738
1533058204,33.203,32.227
1533058204,21.484,30.273
1533058204,9.277,31.25
1533058204,11.719,32.227
1533058204,26.855,30.273
1533058204,37.598,33.203
1533058204,23.926,33.691
1533058204,16.602,30.762
1533058204,20.996,26.855
1533058204,41.016,22.461
1533058204,60.547,29.785
1533058204,27.832,34.18
1533058204,-0.977,29.785
1533058204,-2.441,29.297
1533058204,0.488,33.203
1533058204,-0.488,35.645
1533058204,-12.695,34.18
1533058204,-20.02,33.203
1533058204,-26.855,28.809
1533058204,-11.719,26.855
1533058204,9.766,25.391
1533058204,6.348,25.879
1533058204,2.93,29.297
1533058204,1.953,32.227
1533058204,11.23,33.691
1533058204,28.809,30.762
1533058204,20.02,21.973
1533058204,6.348,15.137
1533058205,0,20.996
1533058205,1.953,25.879
1533058205,19.531,22.949
1533058205,18.066,26.855
1533058205,10.742,27.832
1533058205,5.859,29.297
1533058205,3.906,31.738
1533058205,19.531,29.297
1533058205,28.32,27.344
1533058205,18.555,23.438
1533058205,9.766,24.902
1533058205,8.789,27.344
1533058205,21.973,29.785
1533058205,26.855,28.809
1533058205,19.043,24.414
1533058205,15.137,26.855
1533058205,11.719,31.25
1533058205,22.461,31.25
1533058205,27.344,32.715
1533058205,18.066,33.203
1533058205,11.719,31.25
1533058205,9.277,29.785
1533058205,20.996,30.273
1533058205,27.832,27.832
1533058205,16.113,23.926
1533058205,9.277,23.438
1533058205,2.441,21.484
1533058205,0.977,20.02
1533058205,18.555,19.531
1533058205,19.043,19.531
1533058205,5.859,20.02
1533058205,1.465,21.973
1533058205,10.254,23.438
1533058205,24.902,22.461
1533058205,18.555,23.438
1533058205,9.766,22.949
1533058205,7.812,21.973
1533058205,16.113,29.785
1533058205,33.691,38.086
1533058205,31.25,38.086
1533058205,22.461,33.691
1533058205,12.695,33.691
1533058205,10.254,39.062
1533058205,28.809,39.551
1533058205,29.785,36.621
1533058205,12.695,36.133
1533058205,9.277,36.133
1533058205,19.043,34.668
1533058205,32.715,32.715
1533058205,33.203,32.227
1533058205,20.02,30.762
1533058205,14.16,29.785
1533058205,14.16,28.32
1533058205,26.855,25.391
1533058205,32.227,22.949
1533058205,21.973,20.996
1533058205,18.555,20.508
1533058205,16.113,23.926
1533058205,28.809,25.879
1533058205,41.992,26.367
1533058205,29.785,26.855
1533058205,15.625,25.391
1533058205,8.301,21.484
1533058205,18.555,21.484
1533058205,28.32,22.461
1533058205,19.531,19.043
1533058205,12.207,16.602
1533058205,11.23,12.695
1533058205,20.508,12.207
1533058205,32.227,16.602
1533058205,33.691,21.973
1533058205,41.504,21.973
1533058205,28.809,16.602
1533058205,10.742,11.719
1533058205,18.066,7.324
1533058205,24.414,7.812
1533058205,20.02,9.277
1533058205,8.301,4.883
1533058205,9.766,5.371
1533058205,23.438,9.277
1533058205,25.879,12.207
1533058205,18.555,12.207
1533058205,9.277,8.789
1533058205,11.719,8.789
1533058205,24.902,11.719
1533058205,20.996,13.672
1533058205,10.254,15.625
1533058205,12.695,22.949
1533058205,19.531,21.973
1533058205,33.691,14.16
1533058205,33.203,12.695
1533058205,19.531,12.207
1533058205,14.648,13.672
1533058205,17.09,19.531
1533058205,27.344,20.02
1533058205,31.25,19.531
1533058205,18.066,20.508
1533058205,6.836,17.09
1533058205,11.23,20.02
1533058205,26.367,21.484
1533058205,32.715,13.184
1533058205,24.902,13.672
1533058205,18.555,18.555
1533058205,17.578,20.508
1533058205,28.32,22.461
1533058205,37.109,20.996
1533058205,23.926,18.555
1533058205,14.648,18.555
1533058205,17.578,14.648
1533058205,20.02,11.23
1533058205,29.785,14.16
1533058205,27.344,18.066
1533058205,13.672,13.672
1533058205,8.789,12.695
1533058205,15.137,17.09
1533058205,29.785,18.555
1533058205,30.762,20.996
1533058205,20.508,21.973
1533058205,13.184,20.996
1533058205,14.16,16.113
1533058205,27.832,15.625
1533058205,31.738,24.902
1533058205,14.648,22.949
1533058205,4.883,15.137
1533058205,10.254,15.625
1533058205,26.855,20.02
1533058205,33.203,20.996
1533058205,25.391,19.043
1533058205,25.391,20.02
1533058205,30.762,23.926
1533058205,41.992,22.949
1533058205,48.34,24.902
1533058205,34.18,25.391
1533058205,17.09,25.879
1533058205,13.672,29.297
1533058205,26.855,29.297
1533058205,32.715,25.879
1533058205,22.949,23.926
1533058205,14.648,23.926
1533058205,13.672,28.32
1533058205,25.879,29.785
1533058205,39.062,28.32
1533058205,26.855,30.762
1533058205,1.465,34.18
1533058205,-4.395,35.156
1533058205,5.859,28.809
1533058205,8.789,27.832
1533058205,-1.953,29.785
1533058205,-9.766,25.391
1533058205,-14.648,24.902
1533058205,-3.418,24.902
1533058205,16.113,22.461
1533058205,10.254,24.414
1533058205,0,26.855
1533058205,3.418,27.344
1533058205,14.16,24.414
1533058205,27.344,22.461
1533058205,20.508,26.855
1533058205,3.906,24.902
1533058205,-1.953,18.066
1533058205,4.883,20.02
1533058205,24.414,25.391
1533058205,28.32,28.809
1533058205,20.02,30.273
1533058205,12.207,28.32
1533058205,16.602,28.809
1533058205,33.203,27.344
1533058205,30.762,23.926
1533058205,15.625,24.902
1533058205,10.742,28.32
1533058205,18.555,29.297
1533058205,31.738,30.273
1533058205,29.785,28.809
1533058205,19.531,25.391
1533058205,16.602,25.391
1533058205,15.137,24.902
1533058205,28.809,29.297
1533058205,39.062,32.227
1533058205,29.297,25.879
1533058205,19.043,23.926
1533058205,9.766,25.391
1533058205,20.508,24.414
1533058205,34.668,22.461
1533058205,25.391,16.602
1533058205,15.625,15.137
1533058205,13.184,15.625
1533058205,24.902,15.137
1533058205,37.109,19.043
1533058205,22.949,17.09
1533058205,16.602,14.648
1533058205,16.113,17.09
1533058205,19.043,20.996
1533058205,35.156,21.484
1533058205,32.715,22.461
1533058205,20.996,24.414
1533058205,19.043,29.785
1533058205,27.832,30.273
1533058205,38.086,28.809
1533058205,34.668,32.227
1533058205,24.902,29.785
1533058205,21.484,28.809
1533058205,31.738,31.738
1533058205,48.828,31.25
1533058205,37.109,25.879
1533058205,20.02,23.926
1533058205,20.508,26.855
1533058205,19.531,24.414
1533058205,29.785,22.461
1533058205,28.809,21.484
1533058205,11.719,17.578
1533058205,6.348,16.602
1533058205,10.254,19.043
1533058205,23.438,21.973
1533058205,28.32,25.879
1533058205,13.184,26.367
1533058205,5.371,29.297
1533058205,8.301,32.227
1533058205,20.02,29.297
1533058205,26.367,26.367
1533058205,17.09,25.879
1533058205,16.113,27.832
1533058205,19.531,29.785
1533058205,22.949,25.391
1533058205,32.227,25.391
1533058205,21.973,30.762
1533058205,8.789,32.227
1533058205,6.348,26.855
1533058205,15.137,23.438
1533058205,27.832,25.879
1533058205,20.996,25.879
1533058205,8.301,22.461
1533058205,5.859,20.996
1533058205,18.066,21.973
1533058205,34.18,22.949
1533058205,24.414,23.438
1533058205,10.742,20.508
1533058205,11.719,18.555
1533058205,15.625,16.602
1533058205,28.32,16.113
1533058205,24.414,20.996
1533058205,7.812,20.02
1533058205,2.441,15.625
1533058205,9.277,15.625
1533058205,24.414,15.137
1533058205,25.879,17.578
1533058205,14.648,23.438
1533058205,12.207,26.367
1533058205,17.09,30.273
1533058205,29.785,33.203
1533058205,34.668,29.785
1533058205,19.531,24.414
1533058205,10.742,25.391
1533058205,9.766,27.344
1533058205,20.508,28.32
1533058205,25.879,29.297
1533058205,15.137,25.879
1533058206,11.23,24.902
1533058206,12.695,25.879
1533058206,26.367,25.879
1533058206,39.551,28.809
1533058206,30.762,27.832
1533058206,21.973,27.832
1533058206,21.484,28.32
1533058206,26.855,24.902
1533058206,35.645,23.438
1533058206,29.785,22.461
1533058206,17.578,20.996
1533058206,14.16,24.902
1533058206,22.461,25.879
1533058206,31.25,20.02
1533058206,29.297,20.508
1533058206,23.926,24.902
1533058206,18.555,25.391
1533058206,28.809,28.32
1533058206,39.551,28.809
1533058206,25.879,23.926
1533058206,20.02,21.973
1533058206,12.695,22.461
1533058206,13.184,27.832
1533058206,44.434,30.273
1533058206,48.34,24.902
1533058206,16.602,15.137
1533058206,-11.719,6.348
1533058206,-9.766,3.418
1533058206,12.207,2.441
1533058206,16.113,0.488
1533058206,5.371,-1.465
1533058206,-6.836,-5.371
1533058206,-0.977,-2.93
1533058206,15.625,1.953
1533058206,14.16,2.441
1533058206,-0.488,2.93
1533058206,-1.465,7.324
1533058206,2.441,4.883
1533058206,8.301,2.93
1533058206,17.578,5.371
1533058206,9.766,4.395
1533058206,1.953,5.371
1533058206,-0.488,3.906
1533058206,10.254,1.953
1533058206,20.02,5.859
1533058206,13.184,9.766
1533058206,7.324,13.184
1533058206,3.418,15.625
1533058206,14.16,20.508
1533058206,25.391,23.926
1533058206,17.578,23.438
1533058206,11.23,26.855
1533058206,10.254,29.785
1533058206,21.973,31.25
1533058206,35.156,28.32
1533058206,25.391,25.879
1533058206,16.113,24.902
1533058206,15.625,26.367
1533058206,24.414,27.344
1533058206,39.551,25.391
1533058206,35.156,27.832
1533058206,26.367,29.297
1533058206,25.391,25.879
1533058206,29.785,23.438
1533058206,43.457,23.438
1533058206,44.434,25.391
1533058206,32.715,25.391
1533058206,27.832,22.461
1533058206,33.203,21.484
1533058206,41.016,24.414
1533058206,35.156,24.414
1533058206,18.555,21.484
1533058206,7.812,20.508
1533058206,13.184,19.531
1533058206,22.461,18.066
1533058206,23.926,22.949
1533058206,16.602,24.902
1533058206,3.906,20.996
1533058206,0.977,17.578
1533058206,15.137,15.625
1533058206,23.438,15.625
1533058206,12.695,17.09
1533058206,6.348,20.508
1533058206,10.254,20.996
1533058206,27.344,20.996
1533058206,35.156,19.531
1533058206,20.02,15.137
1533058206,11.23,13.672
1533058206,8.789,14.648
1533058206,16.113,15.625
1533058206,34.668,20.02
1533058206,31.25,24.414
1533058206,10.254,22.949
1533058206,7.812,21.484
1533058206,21.973,20.996
1533058206,32.715,24.902
1533058206,28.32,31.738
1533058206,18.066,29.785
1533058206,10.254,28.32
1533058206,16.113,28.809
1533058206,32.227,27.344
1533058206,27.344,26.855
1533058206,16.113,27.832
1533058206,16.113,25.879
1533058206,22.949,21.973
1533058206,33.203,21.973
1533058206,23.926,21.484
1533058206,11.719,18.066
1533058206,10.254,13.672
1533058206,11.23,11.719
1533058206,26.367,11.719
1533058206,28.809,17.09
1533058206,16.602,22.461
1533058206,12.695,21.484
1533058206,14.16,19.043
1533058206,32.227,20.508
1533058206,35.156,21.484
1533058206,20.02,18.555
1533058206,15.137,16.602
1533058206,17.09,14.16
1533058206,29.785,9.766
1533058206,31.25,8.789
1533058206,18.555,6.348
1533058206,14.16,8.301
1533058206,11.719,12.207
1533058206,22.949,12.695
1533058206,30.762,13.672
1533058206,22.949,11.719
1533058206,19.043,14.648
1533058206,17.09,21.484
1533058206,23.926,23.926
1533058206,30.762,27.344
1533058206,25.879,25.391
1533058206,18.555,25.879
1533058206,6.836,28.32
1533058206,13.672,25.879
1533058206,26.367,24.902
1533058206,18.555,20.508
1533058206,10.742,18.066
1533058206,11.719,21.973
1533058206,16.113,27.344
1533058206,29.785,27.832
1533058206,31.738,27.344
1533058206,23.438,26.367
1533058206,18.066,23.926
1533058206,22.949,24.414
1533058206,40.039,26.855
1533058206,42.969,26.855
1533058206,32.227,20.02
1533058206,20.508,21.484
1533058206,25.879,27.832
1533058206,37.598,27.832
1533058206,32.227,25.879
1533058206,23.438,23.438
1533058206,16.113,25.391
1533058206,20.02,27.832
1533058206,33.691,27.344
1533058206,35.645,26.367
1533058206,27.832,26.855
1533058206,15.625,24.902
1533058206,10.742,23.438
1533058206,20.996,22.461
1533058206,34.668,24.414
1533058206,22.949,22.949
1533058206,6.836,17.578
1533058206,3.418,15.625
1533058206,17.09,13.184
1533058206,29.785,11.23
1533058206,19.043,12.695
1533058206,8.789,11.719
1533058206,6.836,12.207
1533058206,14.16,12.695
1533058206,24.902,14.16
1533058206,21.973,13.184
1533058206,18.555,10.254
1533058206,11.23,15.625
1533058206,12.207,15.625
1533058206,25.391,16.113
1533058206,20.508,19.043
1533058206,8.301,19.531
1533058206,0.488,21.973
1533058206,-0.488,18.555
1533058206,5.859,17.578
1533058206,4.883,17.09
1533058206,-3.906,15.137
1533058206,-13.184,10.254
1533058206,-7.324,8.301
1533058206,-4.883,9.277
1533058206,-21.484,8.789
1533058206,-34.18,10.254
1533058206,-41.504,13.184
1533058206,-43.457,16.113
1533058206,-32.715,18.555
1533058206,-37.109,16.602
1533058206,-54.688,16.113
1533058206,-61.523,20.02
1533058206,-62.012,22.461
1533058206,-52.734,22.461
1533058206,-53.223,21.484
1533058206,-65.43,20.02
1533058206,-73.242,18.066
1533058206,-74.707,18.555
1533058206,-61.035,21.484
1533058206,-55.664,21.484
1533058206,-64.941,16.602
1533058206,-73.73,20.508
1533058206,-83.496,23.926
1533058206,-65.918,18.555
1533058206,-54.199,20.02
1533058206,-66.406,23.438
1533058206,-70.801,26.367
1533058206,-74.707,27.832
1533058206,-70.801,31.738
1533058206,-55.664,35.156
1533058206,-52.246,32.715
1533058206,-62.988,32.715
1533058206,-73.242,32.715
1533058206,-55.176,34.668
1533058206,-29.297,39.062
1533058206,-39.551,39.062
1533058206,-46.387,39.551
1533058206,-35.156,41.992
1533058206,-16.113,40.527
1533058206,-0.488,32.227
1533058206,-6.836,26.367
1533058206,-8.789,24.902
1533058206,-10.742,20.508
1533058206,0,18.066
1533058206,22.949,16.602
1533058206,24.414,17.578
1533058206,24.902,17.578
1533058206,16.113,11.719
1533058206,14.16,9.277
1533058206,39.551,10.742
1533058206,53.711,10.254
1533058206,45.41,10.742
1533058206,39.062,10.254
1533058206,46.387,10.254
1533058206,58.105,11.23
1533058206,63.965,16.113
1533058206,63.965,19.043
1533058206,59.082,17.09
1533058206,55.664,20.508
1533058206,73.73,23.926
1533058206,85.449,24.414
1533058206,81.055,25.391
1533058206,75.195,20.02
1533058206,70.801,15.137
1533058206,82.031,20.02
1533058206,88.867,20.996
1533058206,77.637,19.043
1533058206,59.082,18.555
1533058206,51.27,17.578
1533058206,62.012,16.113
1533058206,75.195,16.602
1533058206,75.684,17.09
1533058207,71.289,19.531
1533058207,67.383,19.043
1533058207,75.195,16.602
1533058207,91.309,17.09
1533058207,84.961,20.508
1533058207,73.242,22.461
1533058207,68.848,22.949
1533058207,67.383,21.973
1533058207,79.59,24.414
1533058207,76.66,27.344
1533058207,61.523,20.996
1533058207,56.641,14.16
1533058207,60.547,14.648
1533058207,70.801,13.184
1533058207,68.359,8.789
1533058207,57.129,13.184
1533058207,49.805,15.137
1533058207,47.852,15.137
1533058207,55.664,14.16
1533058207,62.5,12.695
1533058207,58.105,15.137
1533058207,53.223,14.648
1533058207,54.199,11.23
1533058207,62.012,12.695
1533058207,65.43,16.113
1533058207,57.617,15.137
1533058207,45.898,14.648
1533058207,41.992,12.695
1533058207,55.664,17.578
1533058207,57.617,20.508
1533058207,48.828,19.531
1533058207,41.016,20.508
1533058207,36.621,20.02
1533058207,50.293,19.531
1533058207,58.594,21.484
1533058207,46.387,22.461
1533058207,37.598,21.484
1533058207,35.645,23.438
1533058207,42.969,27.832
1533058207,51.27,28.32
1533058207,45.41,27.832
1533058207,41.016,26.855
1533058207,36.621,24.414
1533058207,44.434,22.949
1533058207,60.547,24.902
1533058207,51.27,26.367
1533058207,40.039,24.414
1533058207,35.156,19.531
1533058207,40.039,15.137
1533058207,53.711,15.137
1533058207,45.898,18.066
1533058207,33.691,23.926
1533058207,26.367,22.461
1533058207,28.809,24.902
1533058207,40.527,28.32
1533058207,40.039,24.414
1533058207,27.344,25.879
1533058207,20.02,31.25
1533058207,28.32,30.273
1533058207,37.598,24.414
1533058207,38.574,22.949
1533058207,32.227,25.391
1533058207,24.414,25.879
1533058207,26.855,25.391
1533058207,44.922,29.785
1533058207,53.711,34.18
1533058207,40.039,30.762
1533058207,31.25,30.273
1533058207,31.738,28.32
1533058207,35.645,24.414
1533058207,41.504,25.391
1533058207,35.645,23.438
1533058207,29.297,23.438
1533058207,25.879,25.391
1533058207,31.738,22.949
1533058207,41.504,15.137
1533058207,32.227,12.695
1533058207,22.461,16.113
1533058207,18.555,16.113
1533058207,29.297,17.09
1533058207,40.039,17.578
1533058207,31.25,13.672
1533058207,17.578,11.719
1533058207,13.184,14.16
1533058207,22.949,17.09
1533058207,35.645,18.555
1533058207,32.227,17.09
1533058207,24.414,14.648
1533058207,19.531,13.184
1533058207,21.973,16.602
1533058207,32.715,20.996
1533058207,32.715,21.484
1533058207,20.508,20.996
1533058207,9.766,20.996
1533058207,15.625,21.973
1533058207,30.273,22.461
1533058207,27.832,20.996
1533058207,22.949,22.949
1533058207,20.996,25.391
1533058207,17.578,24.902
1533058207,28.809,20.996
1533058207,33.691,20.02
1533058207,24.902,24.902
1533058207,16.113,25.879
1533058207,14.16,19.531
1533058207,22.949,14.16
1533058207,28.32,14.648
1533058207,18.555,13.184
1533058207,10.742,10.254
1533058207,14.648,10.742
1533058207,27.832,9.277
1533058207,37.598,9.277
1533058207,28.809,11.23
1533058207,15.137,11.719
1533058207,9.766,18.066
1533058207,19.043,23.438
1533058207,29.785,24.414
1533058207,21.484,25.879
1533058207,15.137,23.438
1533058207,19.531,20.996
1533058207,31.25,20.996
1533058207,41.504,23.438
1533058207,30.273,24.414
1533058207,16.602,20.508
1533058207,14.16,19.531
1533058207,25.879,24.414
1533058207,41.016,28.32
1533058207,32.227,31.25
1533058207,21.484,29.297
1533058207,14.648,28.809
1533058207,17.578,35.645
1533058207,33.691,36.621
1533058207,33.691,30.273
1533058207,19.043,29.297
1533058207,10.742,32.227
1533058207,16.602,35.645
1533058207,34.18,37.109
1533058207,38.086,37.109
1533058207,26.367,36.133
1533058207,19.531,32.715
1533058207,16.113,28.809
1533058207,27.832,26.367
1533058207,35.645,26.367
1533058207,21.973,26.367
1533058207,7.812,27.832
1533058207,9.766,30.273
1533058207,26.855,34.18
1533058207,33.691,35.645
1533058207,21.484,33.691
1533058207,16.113,32.715
1533058207,14.648,31.25
1533058207,25.391,29.785
1533058207,36.621,29.785
1533058207,26.367,30.273
1533058207,17.09,27.832
1533058207,14.648,26.855
1533058207,27.344,26.855
1533058207,41.992,26.367
1533058207,30.273,25.879
1533058207,14.648,24.414
1533058207,14.648,22.461
1533058207,21.484,22.461
1533058207,33.691,22.461
1533058207,31.738,20.508
1533058207,19.531,23.438
1533058207,11.23,23.926
1533058207,15.137,20.508
1533058207,29.785,20.02
1533058207,19.043,18.066
1533058207,8.789,16.602
1533058207,8.301,16.602
1533058207,3.906,12.695
1533058207,15.625,11.23
1533058207,16.602,13.672
1533058207,4.883,12.695
1533058207,2.93,10.254
1533058207,3.418,7.812
1533058207,11.719,10.254
1533058207,10.254,12.207
1533058207,-1.465,16.113
1533058207,-0.488,18.555
1533058207,0,18.555
1533058207,5.371,18.066
1533058207,13.184,17.09
1533058207,7.324,19.531
1533058207,0.977,20.996
1533058207,-0.977,20.02
1533058207,14.16,21.484
1533058207,25.391,19.531
1533058207,25.879,19.531
1533058207,17.09,22.949
1533058207,1.953,22.461
1533058207,22.949,26.367
1533058207,37.598,32.227
1533058207,14.16,27.832
1533058207,4.395,20.02
1533058207,0.977,17.09
1533058207,15.137,22.949
1533058207,36.133,29.785
1533058207,26.367,31.738
1533058207,15.137,34.18
1533058207,16.602,34.668
1533058207,27.832,29.297
1533058207,38.574,24.902
1533058207,48.34,24.414
1533058207,40.039,20.996
1533058207,15.137,18.066
1533058207,21.484,18.066
1533058207,47.852,18.555
1533058207,41.504,23.438
1533058207,32.227,24.414
1533058207,33.691,23.438
1533058207,31.25,22.461
1533058207,49.316,24.414
1533058207,46.875,26.855
1533058207,28.32,26.855
1533058207,37.598,23.926
1533058207,37.598,25.391
1533058207,40.527,28.809
1533058207,49.316,31.738
1533058207,36.133,30.762
1533058207,29.785,28.32
1533058207,33.203,26.855
1533058207,39.551,27.344
1533058207,36.621,28.32
1533058207,22.461,27.344
1533058207,17.09,29.785
1533058207,18.555,30.762
1533058207,34.668,32.227
1533058207,36.621,33.691
1533058207,26.855,28.809
1533058207,16.113,27.344
1533058207,7.324,26.855
1533058207,25.879,25.879
1533058207,41.016,28.32
1533058207,29.785,25.879
1533058207,10.742,20.996
1533058207,12.695,18.066
1533058207,26.367,18.555
1533058207,27.832,19.043
1533058207,16.602,19.043
1533058207,13.672,21.484
1533058207,12.695,19.043
1533058207,20.02,20.996
1533058207,37.109,20.508
1533058207,28.809,17.09
1533058207,16.602,19.043
1533058207,16.113,20.996
1533058207,12.695,21.484
1533058207,29.297,19.531
1533058207,33.203,17.09
1533058207,14.648,19.043
1533058207,9.766,20.02
1533058207,22.461,16.602
1533058207,34.18,14.648
1533058207,21.973,11.719
1533058208,23.926,13.184
1533058208,20.508,16.113
1533058208,9.766,17.578
1533058208,31.738,20.996
1533058208,34.668,23.926
1533058208,23.438,27.344
1533058208,18.066,24.902
1533058208,23.438,22.461
1533058208,38.574,19.043
1533058208,42.48,14.648
1533058208,20.508,16.113
1533058208,3.418,17.09
1533058208,12.207,16.113
1533058208,30.762,14.16
1533058208,26.855,8.789
1533058208,14.648,8.301
1533058208,12.695,14.648
1533058208,10.254,16.602
1533058208,17.09,16.113
1533058208,34.18,18.066
1533058208,22.461,17.578
1533058208,11.23,15.137
1533058208,12.695,11.719
1533058208,25.879,11.23
1533058208,33.203,9.277
1533058208,23.926,7.812
1533058208,19.043,8.301
1533058208,7.324,7.324
1533058208,24.414,10.254
1533058208,45.41,13.184
1533058208,33.691,15.625
1533058208,28.32,20.02
1533058208,25.879,21.484
1533058208,22.461,23.926
1533058208,31.25,21.484
1533058208,33.203,18.066
1533058208,27.344,20.996
1533058208,25.879,20.508
1533058208,17.09,14.648
1533058208,21.484,14.16
1533058208,26.855,15.625
1533058208,15.625,16.113
1533058208,11.719,20.02
1533058208,19.531,21.973
1533058208,33.691,16.602
1533058208,31.25,12.695
1533058208,14.16,15.625
1533058208,9.277,19.531
1533058208,17.09,16.602
1533058208,30.762,15.625
1533058208,35.156,17.578
1533058208,19.531,19.531
1533058208,15.137,21.973
1533058208,18.066,23.438
1533058208,29.297,24.414
1533058208,37.598,20.508
1533058208,22.949,19.043
1533058208,22.461,19.043
1533058208,20.996,13.672
1533058208,18.066,10.254
1533058208,27.344,11.23
1533058208,20.996,14.16
1533058208,10.254,17.09
1533058208,0,18.066
1533058208,11.719,20.508
1533058208,25.879,20.996
1533058208,14.648,17.09
1533058208,6.348,16.602
1533058208,6.348,19.531
1533058208,15.137,21.973
1533058208,28.32,22.949
1533058208,24.414,22.949
1533058208,15.625,18.066
1533058208,3.906,13.672
1533058208,-1.465,16.113
1533058208,20.02,16.602
1533058208,23.438,15.137
1533058208,5.859,14.16
1533058208,0.977,13.672
1533058208,8.301,16.602
1533058208,17.578,17.578
1533058208,19.043,17.09
1533058208,14.16,20.508
1533058208,10.742,20.996
1533058208,14.16,19.043
1533058208,27.832,23.926
1533058208,27.344,21.973
1533058208,9.766,19.043
1533058208,-1.465,21.973
1533058208,-1.953,20.996
1533058208,12.207,15.137
1533058208,20.996,11.719
1533058208,8.789,14.16
1533058208,7.812,14.648
1533058208,11.23,16.602
1533058208,17.578,22.461
1533058208,27.832,20.996
1533058208,21.484,16.602
1533058208,17.578,20.02
1533058208,17.578,21.484
1533058208,20.02,20.996
1533058208,21.973,22.461
1533058208,13.672,25.879
1533058208,12.207,30.762
1533058208,14.16,28.809
1533058208,21.973,27.832
1533058208,35.156,32.715
1533058208,36.133,37.109
1533058208,31.25,38.574
1533058208,24.414,38.086
1533058208,33.203,38.086
1533058208,41.992,35.645
1533058208,32.227,30.762
1533058208,28.809,31.25
1533058208,32.715,32.715
1533058208,38.086,28.809
1533058208,52.246,28.32
1533058208,55.664,29.297
1533058208,36.621,30.273
1533058208,20.508,33.691
1533058208,39.551,33.691
1533058208,53.711,29.785
1533058208,44.434,25.879
1533058208,30.762,21.973
1533058208,26.367,20.996
1533058208,33.691,23.438
1533058208,46.875,22.461
1533058208,50.781,22.949
1533058208,47.363,24.414
1533058208,38.086,24.902
1533058208,29.297,24.902
1533058208,41.016,23.926
1533058208,53.711,21.973
1533058208,48.828,17.578
1533058208,39.551,17.09
1533058208,48.34,19.531
1533058208,52.246,20.02
1533058208,46.875,14.16
1533058208,41.504,12.207
1533058208,35.156,12.695
1533058208,34.18,9.766
1533058208,39.551,9.766
1533058208,41.992,8.301
1533058208,38.574,2.441
1533058208,37.109,1.953
1533058208,28.809,0.488
1533058208,22.949,-3.906
1533058208,46.875,0.488
1533058208,38.574,6.348
1533058208,12.695,5.371
1533058208,16.113,2.93
1533058208,25.391,3.906
1533058208,36.133,3.418
1533058208,39.551,3.418
1533058208,36.621,7.324
1533058208,26.367,9.766
1533058208,22.461,15.137
1533058208,29.785,18.555
1533058208,24.902,16.602
1533058208,20.508,14.16
1533058208,9.766,10.742
1533058208,13.184,12.207
1533058208,32.715,18.555
1533058208,31.25,19.531
1533058208,9.766,19.043
1533058208,3.418,20.02
1533058208,15.137,21.484
1533058208,22.949,22.461
1533058208,28.809,21.973
1533058208,18.066,24.414
1533058208,0.977,21.484
1533058208,3.906,18.066
1533058208,20.996,23.926
1533058208,25.391,24.902
1533058208,18.066,22.949
1533058208,5.371,22.949
1533058208,1.465,26.367
1533058208,20.508,29.785
1533058208,18.555,21.484
1533058208,9.277,19.043
1533058208,-0.488,18.066
1533058208,-9.766,18.066
1533058208,-4.883,20.02
1533058208,15.625,21.484
1533058208,13.184,25.391
1533058208,0.977,26.367
1533058208,-2.93,24.414
1533058208,3.418,23.926
1533058208,29.785,27.344
1533058208,32.227,28.32
1533058208,11.719,24.902
1533058208,3.906,23.926
1533058208,15.137,26.855
1533058208,35.156,27.344
1533058208,34.18,28.809
1533058208,12.695,27.344
1533058208,-0.977,25.879
1533058208,10.742,23.926
1533058208,26.855,20.508
1533058208,26.367,22.461
1533058208,23.438,23.438
1533058208,11.719,20.996
1533058208,13.672,21.973
1533058208,29.785,23.926
1533058208,23.438,20.02
1533058208,7.324,16.113
1533058208,5.859,15.137
1533058208,15.625,20.996
1533058208,25.879,20.508
1533058208,26.367,14.16
1533058208,16.602,13.672
1533058208,5.859,16.113
1533058208,1.953,20.996
1533058208,21.484,23.438
1533058208,37.598,20.02
1533058208,23.926,19.043
1533058208,10.742,23.926
1533058208,8.301,23.926
1533058208,21.973,20.996
1533058208,33.691,20.996
1533058208,19.531,22.461
1533058208,11.719,24.414
1533058208,8.301,23.926
1533058208,12.207,26.367
1533058208,28.32,30.273
1533058208,28.32,30.762
1533058208,10.742,30.762
1533058208,5.371,24.902
1533058208,18.555,21.484
1533058208,26.367,24.902
1533058208,24.902,24.414
1533058208,20.508,25.391
1533058208,13.672,22.461
1533058208,9.277,18.555
1533058208,26.367,22.461
1533058208,28.32,21.973
1533058208,9.277,19.043
1533058208,10.742,20.996
1533058208,20.02,21.973
1533058208,31.25,23.926
1533058208,24.902,24.414
1533058208,5.371,23.438
1533058208,-0.488,28.32
1533058208,8.789,28.809
1533058208,26.855,24.902
1533058208,29.297,24.414
1533058208,18.066,26.367
1533058208,17.09,29.297
1533058208,14.16,31.738
1533058208,26.367,30.273
1533058208,33.691,32.715
1533058208,17.09,34.18
1533058208,16.113,27.832
1533058208,15.137,27.344
1533058208,17.578,34.668
1533058208,27.832,38.574
1533058209,23.438,41.504
1533058209,21.973,43.945
1533058209,9.766,40.039
1533058209,16.113,35.645
1533058209,38.574,35.156
1533058209,29.785,34.18
1533058209,19.043,27.832
1533058209,15.625,24.414
1533058209,20.508,21.973
1533058209,34.668,19.043
1533058209,28.32,19.531
1533058209,20.02,24.902
1533058209,20.996,27.344
1533058209,30.273,29.785
1533058209,43.945,32.227
1533058209,43.457,32.715
1533058209,35.156,33.691
1533058209,27.344,33.203
1533058209,26.367,29.297
1533058209,49.805,31.738
1533058209,53.711,35.156
1533058209,40.039,33.203
1533058209,41.992,36.621
1533058209,40.527,38.086
1533058209,53.711,35.156
1533058209,66.406,34.18
1533058209,46.387,34.18
1533058209,20.508,32.715
1533058209,4.395,26.855
1533058209,9.766,26.367
1533058209,18.555,31.738
1533058209,9.277,30.762
1533058209,6.836,28.32
1533058209,12.695,29.785
1533058209,28.809,28.32
1533058209,43.457,30.273
1533058209,29.297,31.738
1533058209,18.555,25.391
1533058209,23.926,24.414
1533058209,33.203,24.902
1533058209,38.086,24.902
1533058209,32.715,28.809
1533058209,26.855,35.156
1533058209,19.043,35.645
1533058209,28.809,34.18
1533058209,37.598,36.133
1533058209,30.762,33.203
1533058209,28.32,32.227
1533058209,19.043,36.133
1533058209,24.902,40.039
1533058209,41.016,42.48
1533058209,34.18,41.504
1533058209,26.367,39.062
1533058209,18.066,37.109
1533058209,17.09,37.598
1533058209,23.926,35.156
1533058209,14.648,28.809
1533058209,5.859,29.297
1533058209,8.301,33.691
1533058209,20.02,36.621
1533058209,33.203,36.621
1533058209,17.578,30.762
1533058209,3.906,33.203
1533058209,6.836,33.203
1533058209,11.23,32.227
1533058209,21.484,33.691
1533058209,27.344,30.273
1533058209,14.648,27.832
1533058209,-8.789,25.391
1533058209,-8.301,24.414
1533058209,14.648,26.367
1533058209,20.02,20.02
1533058209,7.812,10.742
1533058209,0.977,15.137
1533058209,-18.555,25.879
1533058209,-16.113,27.832
1533058209,-3.906,26.855
1533058209,-16.602,26.855
1533058209,-25.391,33.203
1533058209,-34.668,36.133
1533058209,-34.18,27.344
1533058209,-27.344,23.438
1533058209,-31.25,26.367
1533058209,-26.367,29.785
1533058209,-30.273,27.344
1533058209,-19.043,22.461
1533058209,-7.812,27.344
1533058209,-12.207,31.25
1533058209,-34.18,27.344
1533058209,-50.293,23.926
1533058209,-26.367,21.484
1533058209,-15.137,18.066
1533058209,-31.738,16.602
1533058209,-41.016,20.508
1533058209,-34.18,21.484
1533058209,-22.461,19.531
1533058209,-11.23,21.484
1533058209,-15.137,25.879
1533058209,-28.32,24.902
1533058209,-35.156,23.926
1533058209,-26.367,26.367
1533058209,-8.301,30.273
1533058209,-0.488,31.738
1533058209,-9.766,33.203
1533058209,-14.648,32.715
1533058209,-13.672,29.785
1533058209,3.418,28.32
1533058209,17.578,28.32
1533058209,11.719,27.832
1533058209,0,22.949
1533058209,7.324,23.926
1533058209,19.043,25.391
1533058209,20.508,20.508
1533058209,16.113,17.09
1533058209,5.371,15.137
1533058209,3.906,17.09
1533058209,21.973,20.508
1533058209,30.762,22.461
1533058209,20.02,25.391
1533058209,19.043,27.832
1533058209,16.602,27.344
1533058209,27.832,28.32
1533058209,43.945,27.832
1533058209,36.133,28.32
1533058209,29.297,27.344
1533058209,33.691,24.414
1533058209,41.992,24.902
1533058209,49.805,25.391
1533058209,47.363,31.25
1533058209,37.598,35.156
1533058209,29.785,33.691
1533058209,41.504,34.18
1533058209,53.711,33.203
1533058209,42.969,33.203
1533058209,39.062,33.203
1533058209,38.574,28.32
1533058209,35.156,24.902
1533058209,71.777,25.391
1533058209,71.777,24.414
1533058209,31.738,24.902
1533058209,33.203,19.531
1533058209,38.086,19.043
1533058209,47.363,22.461
1533058209,45.898,17.09
1533058209,34.668,13.672
1533058209,18.555,13.672
1533058209,36.133,14.16
1533058209,55.176,20.508
1533058209,35.645,20.508
1533058209,26.855,15.625
1533058209,18.066,12.207
1533058209,25.879,12.207
1533058209,65.918,15.137
1533058209,57.129,12.695
1533058209,29.297,6.348
1533058209,30.762,-14.16
1533058209,18.555,-28.809
1533058209,37.109,-25.391
1533058209,54.199,-24.902
1533058209,49.316,-22.949
1533058209,54.688,-20.508
1533058209,30.273,-26.855
1533058209,32.715,-24.414
1533058209,52.246,-22.949
1533058209,36.133,-23.438
1533058209,16.113,-20.02
1533058209,14.16,-22.949
1533058209,45.898,-21.973
1533058209,45.898,-19.531
1533058209,20.508,-17.09
1533058209,31.738,-16.113
1533058209,38.086,-16.113
1533058209,36.133,-14.648
1533058209,33.691,-11.719
1533058209,45.41,-7.324
1533058209,36.133,-7.324
1533058209,30.762,-4.883
1533058209,40.039,-5.371
1533058209,47.852,-5.859
1533058209,42.969,-5.371
1533058209,40.527,-7.324
1533058209,32.715,-10.254
1533058209,42.48,-13.184
1533058209,49.805,-13.672
1533058209,41.016,-13.184
1533058209,46.387,-8.789
1533058209,25.391,-2.441
1533058209,13.184,-0.488
1533058209,43.457,-0.488
1533058209,24.902,0.977
1533058209,-3.906,5.859
1533058209,7.812,7.812
1533058209,2.93,3.906
1533058209,19.531,4.395
1533058209,34.668,7.324
1533058209,17.578,5.371
1533058209,18.066,8.301
1533058209,20.508,13.184
1533058209,15.137,14.16
1533058209,36.133,15.137
1533058209,33.203,15.137
1533058209,22.461,14.16
1533058209,15.625,13.184
1533058209,39.062,16.113
1533058209,49.316,11.719
1533058209,18.066,7.324
1533058209,18.555,15.625
1533058209,20.508,15.137
1533058209,21.973,11.23
1533058209,47.363,9.277
1533058209,38.574,5.859
1533058209,12.695,4.883
1533058209,20.02,5.859
1533058209,31.738,8.789
1533058209,38.086,10.254
1533058209,45.898,14.648
1533058209,28.809,14.648
1533058209,6.836,12.695
1533058209,16.602,14.648
1533058209,26.367,19.043
1533058209,31.738,23.926
1533058209,35.645,22.461
1533058209,20.508,18.066
1533058209,16.602,16.602
1533058209,33.203,18.066
1533058209,30.273,15.625
1533058209,8.789,8.301
1533058209,2.441,6.348
1533058209,6.348,9.766
1533058209,4.883,7.812
1533058209,19.043,5.859
1533058209,22.949,8.301
1533058209,7.812,8.301
1533058209,-2.93,12.695
1533058209,22.461,17.578
1533058209,38.086,14.16
1533058209,24.902,16.113
1533058209,9.766,18.066
1533058209,24.414,19.043
1533058209,29.297,15.625
1533058209,24.902,6.836
1533058209,18.066,4.395
1533058209,0.488,4.395
1533058209,7.324,6.348
1533058209,27.344,10.742
1533058209,39.062,14.648
1533058209,42.969,20.508
1533058209,42.48,19.531
1533058209,18.555,13.184
1533058209,30.273,16.113
1533058209,41.992,20.02
1533058209,17.578,21.973
1533058209,43.945,25.879
1533058209,40.527,19.043
1533058209,6.836,15.137
1533058209,30.762,17.578
1533058210,26.367,16.602
1533058210,20.02,18.066
1533058210,23.926,15.625
1533058210,16.113,17.578
1533058210,9.766,17.09
1533058210,31.738,13.184
1533058210,28.32,13.184
1533058210,13.184,12.695
1533058210,3.418,9.766
1533058210,20.02,10.742
1533058210,50.781,11.23
1533058210,36.133,10.742
1533058210,12.695,6.836
1533058210,16.602,2.93
1533058210,31.738,5.859
1533058210,32.227,8.301
1533058210,19.531,4.395
1533058210,10.742,-1.953
1533058210,25.879,-2.93
1533058210,20.996,-0.488
1533058210,20.508,2.441
1533058210,21.973,6.836
1533058210,31.738,14.648
1533058210,37.598,17.578
1533058210,36.133,15.137
1533058210,47.363,16.602
1533058210,35.645,18.066
1533058210,9.766,11.719
1533058210,21.973,16.113
1533058210,44.434,22.461
1533058210,36.133,17.578
1533058210,8.301,18.555
1533058210,15.625,20.996
1533058210,27.344,17.09
1533058210,12.207,18.555
1533058210,20.508,22.949
1533058210,37.109,24.902
1533058210,22.461,20.508
1533058210,-4.395,21.484
1533058210,25.879,26.855
1533058210,56.152,25.879
1533058210,61.523,28.32
1533058210,53.711,28.809
1533058210,37.109,30.273
1533058210,25.391,31.25
1533058210,55.664,28.32
1533058210,66.406,32.227
1533058210,41.992,33.691
1533058210,27.344,31.738
1533058210,50.293,34.668
1533058210,68.359,34.18
1533058210,30.762,29.785
1533058210,42.48,36.133
1533058210,53.711,41.992
1533058210,18.066,39.551
1533058210,20.02,41.016
1533058210,42.48,45.898
1533058210,45.898,53.223
1533058210,33.691,57.617
1533058210,57.617,61.523
1533058210,57.129,53.711
1533058210,35.156,48.34
1533058210,55.664,57.129
1533058210,24.902,50.293
1533058210,-7.812,39.062
1533058210,24.414,36.621
1533058210,47.852,34.18
1533058210,33.203,30.762
1533058210,20.02,27.832
1533058210,30.762,29.297
1533058210,15.625,25.391
1533058210,15.137,22.461
1533058210,41.992,33.203
1533058210,45.898,40.039
1533058210,10.254,38.086
1533058210,-3.906,38.574
1533058210,7.812,38.086
1533058210,24.902,42.969
1533058210,38.574,39.551
1533058210,15.137,28.809
1533058210,5.371,26.855
1533058210,17.578,24.414
1533058210,54.688,28.809
1533058210,14.648,24.414
1533058210,-29.297,11.719
1533058210,30.762,17.09
1533058210,63.477,25.879
1533058210,12.207,18.555
1533058210,-0.977,15.137
1533058210,9.766,19.043
1533058210,23.438,20.02
1533058210,35.156,17.578
1533058210,23.438,15.137
1533058210,37.598,17.578
1533058210,40.527,19.043
1533058210,13.184,19.531
1533058210,-5.859,13.184
1533058210,5.371,8.301
1533058210,31.738,15.625
1533058210,35.156,19.531
1533058210,12.207,12.695
1533058210,6.836,9.766
1533058210,32.715,15.137
1533058210,45.898,21.484
1533058210,23.926,20.996
1533058210,7.324,19.531
1533058210,11.23,20.508
1533058210,20.02,20.508
1533058210,33.203,21.973
1533058210,29.785,23.438
1533058210,6.348,23.926
1533058210,12.695,22.461
1533058210,37.109,21.973
1533058210,54.199,27.832
1533058210,38.086,32.227
1533058210,-13.672,25.879
1533058210,-2.441,19.043
1533058210,44.922,21.484
1533058210,37.598,26.367
1533058210,14.16,29.297
1533058210,14.648,27.832
1533058210,20.996,27.344
1533058210,30.762,29.785
1533058210,31.738,27.344
1533058210,33.691,24.902
1533058210,58.105,26.855
1533058210,24.414,21.484
1533058210,0,20.02
1533058210,31.25,25.391
1533058210,26.855,30.273
1533058210,24.902,37.598
1533058210,31.25,35.645
1533058210,27.344,21.484
1533058210,11.23,15.137
1533058210,0.977,13.184
1533058210,2.441,9.766
1533058210,9.277,10.254
1533058210,39.551,12.207
1533058210,43.457,12.207
1533058210,14.648,15.137
1533058210,19.531,24.414
1533058210,37.598,23.926
1533058210,36.621,14.16
1533058210,19.043,13.184
1533058210,8.301,17.09
1533058210,15.625,17.578
1533058210,1.465,10.254
1533058210,-3.418,4.883
1533058210,29.297,12.207
1533058210,36.621,13.672
1533058210,11.719,9.766
1533058210,-6.348,11.23
1533058210,8.301,13.184
1533058210,23.438,17.578
1533058210,16.113,23.926
1533058210,10.254,25.391
1533058210,12.207,22.949
1533058210,25.879,20.508
1533058210,40.039,20.02
1533058210,32.227,16.602
1533058210,19.043,10.742
1533058210,18.066,11.23
1533058210,23.926,12.207
1533058210,38.086,15.137
1533058210,34.668,18.066
1533058210,20.508,18.066
1533058210,0.488,13.184
1533058210,1.953,8.789
1533058210,25.879,7.812
1533058210,21.484,11.23
1533058210,1.953,14.648
1533058210,5.371,14.16
1533058210,26.855,17.09
1533058210,38.574,16.113
1533058210,27.832,17.09
1533058210,16.113,20.508
1533058210,12.695,20.508
1533058210,18.555,19.043
1533058210,26.855,14.648
1533058210,27.832,10.742
1533058210,29.297,15.625
1533058210,37.598,21.484
1533058210,29.785,21.973
1533058210,35.645,25.879
1533058210,52.246,28.32
1533058210,36.133,27.344
1533058210,24.902,29.785
1533058210,30.762,33.203
1533058210,38.574,32.715
1533058210,44.434,32.715
1533058210,33.691,36.621
1533058210,19.043,35.156
1533058210,10.742,34.668
1533058210,18.555,40.039
1533058210,35.156,42.969
1533058210,25.879,38.086
1533058210,8.301,24.414
1533058210,8.789,16.602
1533058210,15.625,15.137
1533058210,28.32,11.23
1533058210,24.414,10.254
1533058210,11.23,15.137
1533058210,2.93,15.625
1533058210,9.277,9.766
1533058210,31.738,10.742
1533058210,28.32,13.672
1533058210,19.043,12.207
1533058210,15.625,10.742
1533058210,17.09,11.719
1533058210,28.32,13.672
1533058210,32.715,15.137
1533058210,25.391,21.484
1533058210,26.367,24.902
1533058210,27.344,24.414
1533058210,24.414,19.531
1533058210,23.926,17.09
1533058210,23.926,21.973
1533058210,13.672,26.855
1533058210,2.93,33.203
1533058210,18.066,35.156
1533058210,25.879,31.738
1533058210,13.672,30.273
1533058210,9.277,33.691
1533058210,8.789,33.691
1533058210,21.973,30.762
1533058210,25.879,34.668
1533058210,13.184,37.109
1533058210,12.695,33.691
1533058210,11.23,34.18
1533058210,11.23,33.203
1533058210,21.973,31.25
1533058210,13.672,30.273
1533058210,12.207,26.367
1533058210,21.973,20.02
1533058210,18.555,12.695
1533058210,28.32,12.695
1533058210,28.32,16.113
1533058210,11.23,16.113
1533058210,11.719,16.113
1533058210,21.973,17.09
1533058210,27.832,21.484
1533058210,19.531,26.367
1533058210,6.836,28.809
1533058210,2.441,34.18
1533058210,11.23,35.645
1533058210,26.367,35.156
1533058210,26.855,33.691
1533058210,19.043,26.855
1533058210,11.719,23.438
1533058210,16.602,24.902
1533058210,30.273,25.879
1533058210,29.297,25.391
1533058210,19.043,26.367
1533058210,9.277,24.902
1533058210,9.277,19.043
1533058210,16.113,12.695
1533058211,23.438,13.672
1533058211,15.625,14.16
1533058211,2.441,10.742
1533058211,5.371,14.16
1533058211,20.508,15.137
1533058211,28.32,11.719
1533058211,21.484,15.137
1533058211,14.16,19.043
1533058211,6.836,18.066
1533058211,17.578,9.766
1533058211,26.855,11.23
1533058211,19.531,16.602
1533058211,19.531,17.09
1533058211,16.602,19.043
1533058211,22.461,19.043
1533058211,37.109,18.555
1533058211,26.367,20.996
1533058211,19.531,22.461
1533058211,18.555,20.508
1533058211,18.066,16.113
1533058211,26.367,17.09
1533058211,22.461,19.043
1533058211,10.742,20.02
1533058211,4.395,22.949
1533058211,14.648,23.438
1533058211,26.855,22.949
1533058211,25.391,25.879
1533058211,19.531,27.344
1533058211,18.555,31.738
1533058211,19.531,33.203
1533058211,28.32,28.809
1533058211,32.715,30.273
1533058211,23.438,33.691
1533058211,11.719,27.344
1533058211,11.23,23.438
1533058211,25.879,25.879
1533058211,33.203,27.832
1533058211,24.414,27.832
1533058211,10.742,22.949
1533058211,10.742,21.973
1533058211,30.762,29.785
1533058211,34.668,34.18
1533058211,22.461,40.039
1533058211,15.625,41.504
1533058211,9.277,33.691
1533058211,16.113,26.855
1533058211,28.809,28.809
1533058211,17.578,29.297
1533058211,6.348,23.926
1533058211,15.137,26.367
1533058211,32.715,32.715
1533058211,37.598,36.621
1533058211,26.855,37.109
1533058211,20.02,39.062
1533058211,22.461,41.504
1533058211,31.25,37.109
1533058211,41.992,31.738
1533058211,35.156,31.738
1533058211,22.949,36.133
1533058211,17.578,33.203
1533058211,23.926,25.879
1533058211,33.203,25.391
1533058211,24.414,28.809
1533058211,17.578,30.273
1533058211,17.578,33.691
1533058211,20.508,36.133
1533058211,28.32,32.227
1533058211,19.043,30.762
1533058211,8.301,28.809
1533058211,2.93,25.879
1533058211,0.488,24.414
1533058211,11.23,27.832
1533058211,12.207,31.738
1533058211,0,33.203
1533058211,-5.371,34.668
1533058211,-1.465,34.668
1533058211,8.789,30.762
1533058211,13.184,27.344
1533058211,3.418,29.297
1533058211,-5.859,32.227
1533058211,-2.93,35.645
1533058211,9.766,32.715
1533058211,17.578,28.809
1533058211,13.184,28.809
1533058211,2.93,24.902
1533058211,0,20.02
1533058211,16.113,20.02
1533058211,30.273,25.391
1533058211,20.996,26.855
1533058211,9.766,24.902
1533058211,10.742,27.832
1533058211,22.461,29.785
1533058211,25.391,27.832
1533058211,14.648,26.855
1533058211,6.348,20.02
1533058211,0,18.066
1533058211,6.836,23.926
1533058211,21.973,25.391
1533058211,14.648,24.414
1533058211,-2.441,24.902
1533058211,-5.859,31.738
1533058211,5.371,37.598
1533058211,16.113,32.715
1533058211,5.371,26.367
1533058211,-1.953,24.902
1533058211,1.465,25.879
1533058211,0.488,25.879
1533058211,17.578,26.367
1533058211,19.531,23.926
1533058211,3.418,17.578
1533058211,-2.441,17.09
1533058211,0,15.625
1533058211,19.531,15.137
1533058211,25.391,18.066
1533058211,10.742,16.113
1533058211,2.93,9.766
1533058211,1.465,8.789
1533058211,11.719,12.207
1533058211,19.043,12.207
1533058211,7.812,15.625
1533058211,-7.812,16.602
1533058211,-5.371,13.672
1533058211,15.625,13.184
1533058211,24.414,14.648
1533058211,15.137,20.02
1533058211,4.883,20.02
1533058211,3.418,20.02
1533058211,20.508,23.926
1533058211,30.273,18.555
1533058211,21.973,15.625
1533058211,10.742,15.625
1533058211,11.719,16.113
1533058211,27.832,17.578
1533058211,41.504,21.484
1533058211,30.762,24.902
1533058211,21.973,22.949
1533058211,19.531,19.531
1533058211,24.902,19.043
1533058211,38.574,18.555
1533058211,28.809,16.113
1533058211,17.09,11.23
1533058211,16.113,3.906
1533058211,22.949,5.859
1533058211,37.109,14.16
1533058211,36.621,14.648
1533058211,23.438,13.184
1533058211,18.555,11.719
1533058211,25.879,11.719
1533058211,32.715,14.648
1533058211,27.832,17.578
1533058211,20.996,16.602
1533058211,16.602,12.207
1533058211,18.555,10.742
1533058211,32.227,12.695
1533058211,34.668,11.719
1533058211,20.996,9.277
1533058211,11.23,15.137
1533058211,10.742,21.973
1533058211,20.996,22.949
1533058211,30.762,24.902
1533058211,19.043,24.414
1533058211,10.742,23.926
1533058211,12.207,24.902
1533058211,19.043,22.949
1533058211,15.625,17.578
1533058211,8.301,13.672
1533058211,7.324,11.719
1533058211,6.348,7.812
1533058211,17.578,6.836
1533058211,26.855,10.254
1533058211,18.555,14.16
1533058211,9.277,16.113
1533058211,5.859,16.113
1533058211,17.578,15.625
1533058211,30.762,21.973
1533058211,25.879,27.832
1533058211,18.555,26.855
1533058211,13.184,30.273
1533058211,17.578,30.273
1533058211,26.367,27.344
1533058211,20.996,26.855
1533058211,8.301,26.367
1533058211,6.348,25.391
1533058211,17.09,23.926
1533058211,28.809,23.926
1533058211,27.832,26.367
1533058211,19.531,27.832
1533058211,11.719,22.461
1533058211,11.719,18.066
1533058211,23.438,23.438
1533058211,23.438,29.785
1533058211,15.625,30.762
1533058211,14.648,23.438
1533058211,16.602,19.043
1533058211,26.855,22.461
1533058211,29.297,22.949
1533058211,17.578,23.438
1533058211,13.184,25.391
1533058211,17.09,30.762
1533058211,26.367,33.203
1533058211,35.645,33.691
1533058211,29.297,36.133
1533058211,17.578,36.133
1533058211,16.113,32.227
1533058211,32.227,33.691
1533058211,43.457,36.621
1533058211,34.18,36.133
1533058211,23.926,37.109
1533058211,22.949,30.762
1533058211,29.785,24.902
1533058211,34.18,27.344
1533058211,20.02,30.762
1533058211,9.766,29.297
1533058211,10.254,28.32
1533058211,16.113,27.832
1533058211,28.809,27.832
1533058211,20.508,28.32
1533058211,7.324,23.438
1533058211,0.488,19.531
1533058211,9.277,19.531
1533058211,25.391,20.02
1533058211,23.438,19.531
1533058211,14.16,20.508
1533058211,3.418,20.996
1533058211,14.648,20.508
1533058211,29.785,17.09
1533058211,20.508,12.207
1533058211,11.23,6.348
1533058211,6.836,6.836
1533058211,9.766,8.789
1533058211,20.02,10.742
1533058211,18.555,12.695
1533058211,7.812,15.625
1533058211,4.883,14.648
1533058211,7.812,9.766
1533058211,21.484,13.672
1533058211,25.391,16.113
1533058211,15.625,14.648
1533058211,11.23,22.949
1533058211,10.742,27.832
1533058211,26.855,23.438
1533058211,32.715,18.066
1533058211,19.531,15.137
1533058211,9.277,13.184
1533058211,8.301,11.719
1533058211,23.926,14.16
1533058211,27.832,16.113
1533058211,17.578,18.555
1533058211,7.812,16.113
1533058211,1.953,13.672
1533058211,14.648,18.555
1533058211,27.344,23.438
1533058211,19.531,27.832
1533058211,16.602,28.809
1533058211,13.184,30.273
1533058211,16.602,37.109
1533058212,24.414,34.668
1533058212,15.137,28.32
1533058212,7.812,32.227
1533058212,3.418,33.203
1533058212,14.16,32.715
1533058212,28.809,31.25
1533058212,19.043,31.738
1533058212,6.836,34.668
1533058212,2.441,34.668
1533058212,8.301,36.133
1533058212,26.367,36.133
1533058212,29.297,34.18
1533058212,17.09,27.344
1533058212,9.766,21.484
1533058212,11.719,23.926
1533058212,20.996,25.391
1533058212,27.832,23.438
1533058212,21.484,20.02
1533058212,16.113,18.555
1533058212,23.438,21.973
1533058212,38.086,19.531
1533058212,41.992,19.043
1533058212,28.809,23.926
1533058212,18.066,25.391
1533058212,15.625,27.832
1533058212,26.367,27.832
1533058212,26.855,25.879
1533058212,9.277,29.297
1533058212,2.93,34.668
1533058212,2.93,36.133
1533058212,16.602,34.668
1533058212,33.203,35.156
1533058212,24.414,31.738
1533058212,8.301,25.391
1533058212,7.324,26.367
1533058212,20.996,22.949
1533058212,29.297,23.438
1533058212,21.973,25.391
1533058212,15.625,27.344
1533058212,7.812,32.227
1533058212,10.742,35.645
1533058212,26.367,39.062
1533058212,25.879,40.039
1533058212,14.648,35.156
1533058212,10.254,29.785
1533058212,12.695,27.344
1533058212,17.578,20.02
1533058212,12.695,20.996
1533058212,8.789,20.996
1533058212,7.324,19.531
1533058212,15.625,20.508
1533058212,28.809,16.602
1533058212,18.555,11.719
1533058212,6.836,9.277
1533058212,5.371,8.301
1533058212,14.648,10.742
1533058212,27.344,15.625
1533058212,25.391,18.066
1533058212,21.973,20.508
1533058212,17.09,22.949
1533058212,16.113,19.043
1533058212,29.297,16.113
1533058212,32.715,18.555
1533058212,22.949,19.531
1533058212,13.672,19.531
1533058212,18.555,16.602
1533058212,35.156,17.09
1533058212,36.621,20.996
1533058212,26.367,20.996
1533058212,21.973,16.602
1533058212,20.508,17.578
1533058212,32.227,16.602
1533058212,41.016,19.531
1533058212,26.367,27.344
1533058212,15.137,26.855
1533058212,11.719,26.367
1533058212,18.066,24.902
1533058212,25.391,23.926
1533058212,12.207,26.855
1533058212,-0.488,25.879
1533058212,-3.906,24.902
1533058212,2.441,24.414
1533058212,13.184,27.832
1533058212,8.789,35.156
1533058212,0.488,35.156
1533058212,1.953,31.738
1533058212,11.23,30.273
1533058212,23.926,30.273
1533058212,19.531,33.691
1533058212,9.277,35.156
1533058212,10.254,35.156
1533058212,18.066,38.574
1533058212,25.879,37.598
1533058212,21.484,35.156
1533058212,6.836,25.391
1533058212,-2.441,21.484
1533058212,0,23.438
1533058212,9.766,21.973
1533058212,10.742,26.367
1533058212,0.488,27.344
1533058212,-3.418,25.391
1533058212,-4.883,24.414
1533058212,0.488,22.949
1533058212,9.766,22.949
1533058212,0.977,25.391
1533058212,-6.348,26.367
1533058212,-3.418,22.461
1533058212,8.301,20.508
1533058212,14.648,22.461
1533058212,6.348,25.879
1533058212,0.488,24.414
1533058212,-1.465,18.066
1533058212,12.207,18.555
1533058212,23.438,23.926
1533058212,11.719,20.996
1533058212,2.441,16.602
1533058212,1.465,19.043
1533058212,12.695,22.949
1533058212,20.996,20.996
1533058212,13.672,21.973
1533058212,8.301,25.879
1533058212,4.395,26.855
1533058212,14.648,28.32
1533058212,29.785,31.738
1533058212,19.531,32.227
1533058212,9.277,30.273
1533058212,1.953,24.414
1533058212,4.883,14.648
1533058212,18.555,11.719
1533058212,10.742,10.742
1533058212,-2.93,9.277
1533058212,-8.789,11.719
1533058212,-5.371,15.137
1533058212,10.254,16.113
1533058212,11.719,13.184
1533058212,-3.418,13.672
1533058212,-8.301,20.02
1533058212,2.93,23.926
1533058212,14.16,23.438
1533058212,15.137,21.973
1533058212,7.324,21.973
1533058212,3.418,28.809
1533058212,6.836,31.738
1533058212,21.484,27.344
1533058212,25.879,27.344
1533058212,12.695,28.32
1533058212,2.441,31.25
1533058212,2.441,32.715
1533058212,12.695,32.715
1533058212,18.066,38.574
1533058212,9.277,37.598
1533058212,1.465,31.25
1533058212,4.883,23.438
1533058212,14.16,18.066
1533058212,22.461,23.438
1533058212,17.09,28.809
1533058212,5.371,27.344
1533058212,3.906,27.832
1533058212,11.719,24.902
1533058212,14.16,22.949
1533058212,11.23,24.902
1533058212,15.137,21.484
1533058212,12.695,18.066
1533058212,20.02,19.531
1533058212,33.203,22.949
1533058212,26.367,21.484
1533058212,19.531,22.949
1533058212,13.672,29.297
1533058212,15.625,28.809
1533058212,26.855,27.344
1533058212,21.484,30.273
1533058212,7.324,28.32
1533058212,0,20.996
1533058212,2.441,20.02
1533058212,20.02,23.926
1533058212,21.484,21.484
1533058212,7.324,14.648
1533058212,2.93,11.23
1533058212,7.812,16.602
1533058212,18.555,22.949
1533058212,19.043,20.02
1533058212,4.395,14.16
1533058212,1.465,11.719
1533058212,9.277,11.719
1533058212,21.484,16.602
1533058212,26.855,21.484
1533058212,21.973,20.508
1533058212,18.555,20.02
1533058212,18.555,20.02
1533058212,26.855,18.066
1533058212,28.32,17.578
1533058212,19.043,22.949
1533058212,8.789,20.508
1533058212,4.395,19.043
1533058212,14.16,21.973
1533058212,21.973,20.996
1533058212,7.812,21.484
1533058212,-0.488,20.508
1533058212,0.488,19.531
1533058212,6.836,20.996
1533058212,18.066,22.461
1533058212,12.695,21.484
1533058212,6.836,23.926
1533058212,7.812,25.391
1533058212,14.16,18.555
1533058212,25.391,13.184
1533058212,22.949,14.648
1533058212,7.324,10.742
1533058212,-1.953,7.812
1533058212,10.254,10.254
1533058212,24.414,11.719
1533058212,22.461,15.625
1533058212,11.719,14.16
1533058212,5.371,10.254
1533058212,11.23,10.254
1533058212,22.949,9.277
1533058212,17.09,5.859
1533058212,0,3.906
1533058212,-10.742,7.324
1533058212,-5.371,10.254
1533058212,14.16,9.277
1533058212,19.043,7.812
1533058212,10.742,10.254
1533058212,7.812,13.184
1533058212,7.812,15.625
1533058212,18.066,18.066
1533058212,27.344,16.602
1533058212,25.391,16.602
1533058212,15.625,16.602
1533058212,11.23,16.113
1533058212,23.926,18.066
1533058212,28.32,18.555
1533058212,18.555,17.578
1533058212,10.254,20.02
1533058212,1.953,21.484
1533058212,9.277,18.555
1533058212,22.949,17.09
1533058212,15.137,14.16
1533058212,10.742,11.23
1533058212,14.16,10.254
1533058212,30.273,6.836
1533058212,46.387,9.766
1533058212,41.016,16.113
1533058212,32.715,16.602
1533058212,25.879,16.113
1533058212,33.691,17.578
1533058212,47.852,20.508
1533058212,39.551,21.973
1533058212,25.879,21.484
1533058212,21.973,24.414
1533058212,23.926,26.855
1533058212,30.762,30.273
1533058212,25.879,34.668
1533058212,13.672,27.832
1533058212,5.371,23.926
1533058212,9.766,24.902
1533058213,27.344,22.949
1533058213,29.785,23.926
1533058213,19.531,23.926
1533058213,10.742,20.996
1533058213,12.695,19.531
1533058213,25.391,22.949
1533058213,29.785,33.203
1533058213,20.02,32.227
1533058213,10.742,20.02
1533058213,13.672,16.113
1533058213,24.414,20.508
1533058213,26.855,18.555
1533058213,17.09,19.531
1533058213,8.789,21.973
1533058213,8.789,23.926
1533058213,24.414,26.855
1533058213,30.762,26.367
1533058213,15.625,22.949
1533058213,9.277,21.973
1533058213,9.766,21.973
1533058213,23.438,20.996
1533058213,24.902,20.996
1533058213,5.859,24.414
1533058213,-0.488,23.438
1533058213,-0.488,20.996
1533058213,7.812,24.902
1533058213,17.09,25.391
1533058213,10.254,19.531
1533058213,8.301,17.09
1533058213,12.207,15.137
1533058213,18.066,17.578
1533058213,24.414,21.973
1533058213,15.625,19.531
1533058213,4.883,16.602
1533058213,0,15.625
1533058213,5.371,14.16
1533058213,21.484,16.602
1533058213,23.438,17.578
1533058213,12.695,15.625
1533058213,10.254,16.602
1533058213,13.184,14.16
1533058213,23.926,12.207
1533058213,26.367,12.207
1533058213,18.555,13.184
1533058213,13.184,16.602
1533058213,12.695,15.137
1533058213,24.902,10.254
1533058213,28.32,8.789
1533058213,16.602,10.254
1533058213,9.766,10.254
1533058213,8.789,11.23
1533058213,20.508,11.23
1533058213,24.902,10.742
1533058213,16.602,16.602
1533058213,15.137,16.113
1533058213,15.137,14.16
1533058213,22.461,18.555
1533058213,31.738,22.461
1533058213,23.926,23.438
1533058213,14.16,23.438
1533058213,13.184,27.344
1533058213,20.508,23.926
1533058213,28.32,20.996
1533058213,13.672,18.555
1533058213,3.906,16.602
1533058213,6.348,21.973
1533058213,18.066,23.438
1533058213,28.32,20.02
1533058213,18.555,17.578
1533058213,10.254,20.02
1533058213,6.348,22.461
1533058213,9.766,27.344
1533058213,22.461,32.715
1533058213,18.555,34.18
1533058213,7.812,36.621
1533058213,1.465,34.668
1533058213,9.277,33.691
1533058213,22.949,37.598
1533058213,17.09,40.039
1533058213,2.93,41.016
1533058213,-2.441,41.992
1533058213,-1.465,38.574
1533058213,12.207,28.32
1533058213,16.113,21.484
1533058213,-0.488,29.297
1533058213,-18.066,35.156
1533058213,-25.879,31.738
1533058213,-12.207,29.297
1533058213,-14.648,29.785
1533058213,-31.738,30.762
1533058213,-41.016,30.273
1533058213,-45.898,32.227
1533058213,-37.598,32.715
1533058213,-30.273,32.227
1533058213,-45.41,37.109
1533058213,-54.199,39.551
1533058213,-58.105,35.156
1533058213,-53.223,38.574
1533058213,-39.551,43.945
1533058213,-48.828,39.062
1533058213,-63.477,32.227
1533058213,-64.453,35.156
1533058213,-48.828,40.039
1533058213,-31.738,41.992
1533058213,-44.434,41.504
1533058213,-53.711,40.039
1533058213,-51.27,39.551
1533058213,-50.781,37.109
1533058213,-41.504,36.133
1533058213,-44.434,35.156
1533058213,-48.828,35.156
1533058213,-56.152,31.738
1533058213,-54.688,26.855
1533058213,-30.273,33.203
1533058213,-35.156,33.691
1533058213,-53.223,29.785
1533058213,-54.199,27.832
1533058213,-40.527,29.297
1533058213,-27.344,29.785
1533058213,-24.902,30.762
1533058213,-18.555,31.25
1533058213,-20.02,31.738
1533058213,-22.461,33.203
1533058213,-5.859,30.273
1533058213,6.836,26.367
1533058213,1.465,25.879
1533058213,-3.418,26.855
1533058213,2.441,25.391
1533058213,13.184,19.531
1533058213,25.879,19.531
1533058213,27.344,23.926
1533058213,14.16,21.484
1533058213,20.02,23.926
1533058213,41.504,27.344
1533058213,50.781,24.902
1533058213,51.758,26.367
1533058213,50.293,21.484
1533058213,41.504,20.508
1533058213,58.105,24.414
1533058213,76.66,24.414
1533058213,69.824,24.414
1533058213,62.012,27.344
1533058213,57.129,26.367
1533058213,63.965,24.902
1533058213,73.73,27.344
1533058213,59.082,25.879
1533058213,46.875,27.832
1533058213,44.922,29.785
1533058213,49.805,29.297
1533058213,60.059,30.762
1533058213,57.129,29.785
1533058213,45.898,26.855
1533058213,36.133,23.438
1533058213,45.898,24.414
1533058213,62.5,27.344
1533058213,60.059,28.32
1533058213,48.34,22.949
1533058213,41.504,17.09
1533058213,46.387,15.137
1533058213,62.988,16.602
1533058213,67.383,16.602
1533058213,53.711,16.113
1533058213,40.527,18.066
1533058213,45.41,20.508
1533058213,63.965,22.949
1533058213,62.988,21.484
1533058213,44.922,18.555
1533058213,35.156,19.531
1533058213,36.133,19.531
1533058213,49.805,22.461
1533058213,51.27,25.391
1533058213,41.016,23.438
1533058213,35.156,25.391
1533058213,33.203,26.855
1533058213,45.41,24.902
1533058213,54.688,24.902
1533058213,46.875,20.996
1533058213,36.133,17.578
1533058213,34.668,17.09
1533058213,49.316,16.113
1533058213,58.594,14.16
1533058213,50.781,13.672
1533058213,42.48,14.16
1533058213,37.598,13.672
1533058213,44.922,14.16
1533058213,57.617,16.113
1533058213,50.293,19.531
1533058213,41.992,23.438
1533058213,36.621,19.531
1533058213,39.062,14.16
1533058213,49.316,15.137
1533058213,42.969,14.648
1533058213,29.785,16.602
1533058213,25.879,19.043
1533058213,35.156,20.02
1533058213,50.781,21.484
1533058213,45.41,21.484
1533058213,31.25,20.508
1533058213,24.902,19.043
1533058213,25.879,17.578
1533058213,40.039,19.043
1533058213,40.039,21.484
1533058213,27.832,21.973
1533058213,22.949,21.973
1533058213,29.785,22.949
1533058213,44.922,27.344
1533058213,45.41,29.785
1533058213,33.203,28.809
1533058213,26.367,28.809
1533058213,27.344,30.273
1533058213,36.621,28.809
1533058213,39.062,24.414
1533058213,29.785,23.926
1533058213,28.32,27.344
1533058213,26.367,22.949
1533058213,33.691,20.996
1533058213,41.504,26.367
1533058213,29.297,26.367
1533058213,21.973,29.297
1533058213,30.273,36.133
1533058213,41.992,39.551
1533058213,41.016,36.621
1533058213,25.391,33.203
1533058213,17.578,32.715
1533058213,20.02,31.738
1533058213,29.785,30.273
1533058213,40.527,27.832
1533058213,30.273,23.926
1533058213,18.066,21.973
1533058213,15.625,20.996
1533058213,25.879,17.578
1533058213,41.016,20.996
1533058213,31.738,20.508
1533058213,15.137,17.09
1533058213,13.184,22.949
1533058213,21.484,24.902
1533058213,27.344,20.996
1533058213,25.879,20.996
1533058213,14.648,21.973
1533058213,7.324,20.02
1533058213,10.742,17.09
1533058213,25.879,19.043
1533058213,26.367,20.508
1533058213,12.695,20.508
1533058213,6.348,18.066
1533058213,5.371,15.137
1533058213,18.555,16.602
1533058213,24.902,20.02
1533058213,12.695,18.555
1533058213,9.277,14.16
1533058213,12.207,11.23
1533058213,21.484,10.742
1533058213,32.715,11.719
1533058213,25.879,16.602
1533058213,17.09,18.555
1533058213,17.09,22.949
1533058214,26.367,28.809
1533058214,30.762,27.832
1533058214,20.02,29.297
1533058214,8.789,29.785
1533058214,6.836,29.297
1533058214,15.625,29.785
1533058214,27.344,32.715
1533058214,21.973,33.691
1533058214,14.16,28.32
1533058214,7.812,26.855
1533058214,11.23,28.32
1533058214,22.949,27.344
1533058214,15.625,23.926
1533058214,9.766,21.484
1533058214,6.836,21.973
1533058214,12.695,20.02
1533058214,27.832,23.438
1533058214,25.391,27.832
1533058214,12.695,26.855
1533058214,4.395,26.855
1533058214,10.254,30.762
1533058214,26.367,31.738
1533058214,29.297,31.738
1533058214,17.09,34.18
1533058214,11.23,33.691
1533058214,22.461,35.156
1533058214,35.645,34.18
1533058214,31.25,25.879
1533058214,19.531,23.438
1533058214,11.23,20.02
1533058214,14.648,18.066
1533058214,27.344,28.32
1533058214,31.738,34.18
1533058214,20.02,31.25
1533058214,10.742,30.762
1533058214,10.254,30.762
1533058214,25.879,28.809
1533058214,37.109,28.809
1533058214,27.344,34.18
1533058214,17.09,35.156
1533058214,13.672,34.18
1533058214,22.949,33.691
1533058214,30.273,31.738
1533058214,20.508,35.645
1533058214,9.766,38.574
1533058214,5.859,40.039
1533058214,11.719,42.48
1533058214,22.949,39.551
1533058214,20.996,35.156
1533058214,16.602,35.645
1533058214,15.625,40.039
1533058214,22.461,46.875
1533058214,36.621,50.293
1533058214,25.391,44.434
1533058214,14.648,43.945
1533058214,13.184,49.316
1533058214,16.113,48.828
1533058214,32.227,47.363
1533058214,31.25,46.387
1533058214,20.02,43.457
1533058214,8.301,43.457
1533058214,16.602,42.969
1533058214,36.621,36.133
1533058214,36.621,32.715
1533058214,25.879,33.691
1533058214,18.066,34.18
1533058214,21.973,34.18
1533058214,35.156,37.598
1533058214,35.156,36.133
1533058214,26.367,31.25
1533058214,18.555,28.809
1533058214,19.043,23.438
1533058214,27.832,24.414
1533058214,30.762,30.762
1533058214,23.438,31.738
1533058214,13.672,28.32
1533058214,12.207,24.902
1533058214,22.461,25.879
1533058214,26.367,26.855
1533058214,22.949,24.414
1533058214,17.09,25.391
1533058214,10.742,25.391
1533058214,19.043,21.973
1533058214,32.227,15.625
1533058214,29.785,13.184
1533058214,18.066,17.09
1533058214,13.184,20.996
1533058214,22.949,22.949
1533058214,34.668,20.508
1533058214,30.273,15.625
1533058214,30.762,5.371
1533058214,37.598,9.766
1533058214,39.062,20.02
1533058214,38.086,20.996
1533058214,24.902,20.02
1533058214,20.508,22.461
1533058214,16.113,26.855
1533058214,20.996,30.762
1533058214,39.551,34.18
1533058214,30.273,36.133
1533058214,20.508,38.086
1533058214,19.531,40.527
1533058214,24.414,50.293
1533058214,43.457,55.176
1533058214,42.48,51.758
1533058214,24.902,48.828
1533058214,20.02,48.828
1533058214,25.879,44.434
1533058214,39.062,41.504
1533058214,36.621,41.504
1533058214,20.508,38.086
1533058214,15.625,40.039
1533058214,20.508,41.504
1533058214,35.645,42.969
1533058214,41.992,47.852
1533058214,33.691,46.387
1533058214,23.438,38.086
1533058214,23.926,32.715
1533058214,40.527,37.109
1533058214,47.363,35.645
1533058214,37.109,32.715
1533058214,29.785,35.645
1533058214,24.902,36.621
1533058214,36.133,36.133
1533058214,44.434,37.109
1533058214,30.273,43.945
1533058214,19.531,43.945
1533058214,18.066,40.039
1533058214,27.832,41.016
1533058214,42.969,43.457
1533058214,35.645,40.039
1533058214,23.438,34.668
1533058214,16.602,35.645
1533058214,21.484,36.133
1533058214,38.574,36.133
1533058214,30.762,33.203
1533058214,18.555,27.344
1533058214,15.137,28.32
1533058214,21.484,29.785
1533058214,37.109,30.273
1533058214,31.25,31.25
1533058214,17.578,30.273
1533058214,11.719,28.32
1533058214,12.695,23.926
1533058214,28.32,23.438
1533058214,31.738,27.832
1533058214,18.555,35.156
1533058214,13.184,37.109
1533058214,17.578,34.18
1533058214,31.738,36.621
1533058214,33.691,41.016
1533058214,19.531,41.992
1533058214,13.672,38.574
1533058214,15.137,35.156
1533058214,21.973,34.668
1533058214,27.832,36.133
1533058214,21.973,34.18
1533058214,10.742,33.691
1533058214,8.301,36.621
1533058214,22.949,38.574
1533058214,31.25,42.48
1533058214,22.949,39.062
1533058214,14.648,32.715
1533058214,8.301,29.785
1533058214,20.02,29.297
1533058214,29.297,27.832
1533058214,20.02,31.25
1533058214,13.184,31.738
1533058214,9.766,28.809
1533058214,24.414,37.109
1533058214,40.527,38.574
1533058214,28.32,35.156
1533058214,13.672,35.645
1533058214,13.184,33.691
1533058214,31.738,33.203
1533058214,45.41,30.762
1533058214,22.949,28.32
1533058214,6.348,30.273
1533058214,3.906,25.391
1533058214,12.207,22.949
1533058214,27.344,26.367
1533058214,25.879,26.855
1533058214,21.484,26.855
1533058214,20.02,28.32
1533058214,20.996,30.762
1533058214,33.691,34.18
1533058214,34.18,32.227
1533058214,20.508,29.785
1533058214,16.113,30.273
1533058214,19.531,29.297
1533058214,40.527,31.25
1533058214,47.852,30.762
1533058214,27.832,26.855
1533058214,20.508,27.344
1533058214,23.926,28.32
1533058214,33.691,27.344
1533058214,41.016,27.832
1533058214,28.809,31.25
1533058214,15.137,35.156
1533058214,11.719,36.133
1533058214,25.391,34.668
1533058214,35.156,32.715
1533058214,20.996,33.691
1533058214,10.254,31.25
1533058214,12.207,26.855
1533058214,19.531,27.832
1533058214,20.02,23.926
1533058214,14.16,20.508
1533058214,10.254,21.484
1533058214,7.324,19.043
1533058214,20.508,20.996
1533058214,32.715,24.414
1533058214,27.832,21.973
1533058214,19.043,20.02
1533058214,9.277,22.461
1533058214,15.625,23.926
1533058214,32.715,23.926
1533058214,24.414,21.973
1533058214,8.301,20.508
1533058214,5.371,21.973
1533058214,11.23,16.113
1533058214,23.438,11.719
1533058214,26.367,16.113
1533058214,20.02,20.508
1533058214,11.719,15.137
1533058214,13.672,10.254
1533058214,28.32,12.207
1533058214,26.367,16.602
1533058214,14.16,17.09
1533058214,12.207,19.531
1533058214,13.672,22.461
1533058214,20.02,25.391
1533058214,19.043,24.902
1533058214,8.789,20.996
1533058214,2.93,21.484
1533058214,2.93,19.531
1533058214,12.207,13.672
1533058214,16.113,13.672
1533058214,7.812,18.066
1533058214,-0.488,21.973
1533058214,-2.93,23.438
1533058214,9.766,23.926
1533058214,18.066,20.996
1533058214,8.301,18.066
1533058214,1.465,18.555
1533058214,-1.953,14.16
1533058214,10.742,13.184
1533058214,20.508,16.113
1533058214,10.254,18.066
1533058214,4.395,16.113
1533058214,-2.93,12.207
1533058214,10.254,14.648
1533058214,28.809,17.09
1533058214,21.484,13.184
1533058214,15.137,11.23
1533058214,10.742,13.184
1533058215,14.648,13.672
1533058215,25.391,16.602
1533058215,16.113,20.02
1533058215,0.488,17.09
1533058215,-4.883,15.137
1533058215,2.441,14.16
1533058215,13.672,11.719
1533058215,11.23,8.301
1533058215,5.371,6.836
1533058215,2.441,12.695
1533058215,5.371,15.137
1533058215,16.602,14.16
1533058215,16.113,13.184
1533058215,11.23,14.648
1533058215,8.301,17.578
1533058215,8.301,19.531
1533058215,23.926,20.02
1533058215,25.391,20.02
1533058215,15.137,23.438
1533058215,9.766,20.508
1533058215,8.789,13.672
1533058215,23.926,16.113
1533058215,31.25,21.484
1533058215,20.508,17.578
1533058215,9.277,12.695
1533058215,7.324,10.742
1533058215,20.02,8.789
1533058215,24.414,10.254
1533058215,10.742,11.23
1533058215,6.836,10.742
1533058215,7.812,13.184
1533058215,15.625,13.184
1533058215,26.855,10.254
1533058215,20.02,13.672
1533058215,14.648,20.02
1533058215,18.555,18.066
1533058215,24.414,15.137
1533058215,30.762,17.09
1533058215,24.414,16.113
1533058215,17.09,15.625
1533058215,17.09,12.695
1533058215,21.484,12.207
1533058215,34.18,12.207
1533058215,34.668,8.789
1533058215,27.344,6.836
1533058215,18.066,6.836
1533058215,14.16,10.254
1533058215,27.832,14.16
1533058215,36.621,15.625
1533058215,30.762,16.602
1533058215,17.578,12.207
1533058215,17.09,9.766
1533058215,30.762,11.719
1533058215,35.156,13.184
1533058215,29.785,17.578
1533058215,21.973,19.043
1533058215,18.066,15.625
1533058215,26.855,14.648
1533058215,30.762,10.742
1533058215,23.926,10.254
1533058215,19.043,8.789
1533058215,20.508,5.859
1533058215,38.574,16.113
1533058215,45.898,22.949
1533058215,27.832,18.555
1533058215,26.855,17.09
1533058215,26.855,15.625
1533058215,29.785,14.648
1533058215,35.645,17.578
1533058215,26.855,18.066
1533058215,21.484,20.02
1533058215,21.973,23.438
1533058215,32.227,24.414
1533058215,39.551,22.461
1533058215,31.738,20.02
1533058215,25.391,19.043
1533058215,22.461,19.043
1533058215,22.949,19.043
1533058215,32.227,20.996
1533058215,28.32,25.391
1533058215,20.508,28.809
1533058215,17.578,28.809
1533058215,15.625,28.32
1533058215,28.32,28.32
1533058215,29.785,27.344
1533058215,21.973,27.832
1533058215,24.902,29.297
1533058215,28.809,25.879
1533058215,30.273,22.949
1533058215,23.926,21.973
1533058215,12.695,25.879
1533058215,5.859,34.18
1533058215,7.324,32.715
1533058215,22.461,29.785
1533058215,23.926,29.297
1533058215,33.203,25.391
1533058215,20.996,23.438
1533058215,-1.953,28.32
1533058215,23.926,31.738
1533058215,29.297,28.809
1533058215,12.695,27.832
1533058215,5.371,26.855
1533058215,7.324,28.809
1533058215,18.555,31.25
1533058215,23.438,24.414
1533058215,5.859,16.602
1533058215,12.207,15.625
1533058215,13.184,13.184
1533058215,-0.977,12.207
1533058215,20.508,14.648
1533058215,6.348,11.719
1533058215,4.395,13.672
1533058215,7.812,15.625
1533058215,-7.324,12.207
1533058215,25.879,16.113
1533058215,16.113,14.648
1533058215,-8.301,10.742
1533058215,3.906,9.277
1533058215,6.836,8.789
1533058215,23.438,10.742
1533058215,15.625,8.789
1533058215,-13.184,2.93
1533058215,5.371,1.465
1533058215,7.812,4.395
1533058215,7.812,9.766
1533058215,19.043,12.207
1533058215,8.789,13.184
1533058215,5.859,14.16
1533058215,17.09,10.742
1533058215,23.438,13.672
1533058215,15.625,16.113
1533058215,7.812,16.602
1533058215,1.465,18.555
1533058215,2.93,20.996
1533058215,20.996,22.949
1533058215,28.809,21.973
1533058215,23.926,20.996
1533058215,13.672,17.578
1533058215,-4.395,16.602
1533058215,2.93,18.066
1533058215,10.742,17.09
1533058215,4.395,15.137
1533058215,-6.836,13.672
1533058215,-12.207,7.812
1533058215,4.883,5.371
1533058215,13.184,13.184
1533058215,-6.348,13.184
1533058215,-13.184,11.719
1533058215,-4.883,13.184
1533058215,16.113,14.648
1533058215,29.785,14.16
1533058215,15.625,14.648
1533058215,14.648,15.137
1533058215,16.602,12.695
1533058215,13.672,10.742
1533058215,25.391,13.672
1533058215,23.438,17.578
1533058215,9.766,16.602
1533058215,4.395,16.602
1533058215,16.602,21.973
1533058215,33.691,23.438
1533058215,27.344,22.461
1533058215,15.625,21.973
1533058215,16.113,19.043
1533058215,21.973,17.578
1533058215,37.109,21.484
1533058215,38.086,26.367
1533058215,26.855,23.438
1533058215,14.648,20.02
1533058215,11.719,18.066
1533058215,24.902,20.02
1533058215,24.414,24.414
1533058215,19.043,25.879
1533058215,17.578,23.926
1533058215,20.02,21.484
1533058215,28.809,23.438
1533058215,22.461,25.391
1533058215,18.066,22.949
1533058215,7.812,18.066
1533058215,-3.906,15.137
1533058215,14.648,13.184
1533058215,25.879,13.672
1533058215,15.137,14.648
1533058215,14.648,13.672
1533058215,16.113,14.16
1533058215,23.926,14.648
1533058215,32.715,12.695
1533058215,21.973,8.301
1533058215,13.184,11.23
1533058215,19.531,18.066
1533058215,33.203,20.508
1533058215,38.574,22.461
1533058215,26.855,19.531
1533058215,20.02,14.16
1533058215,20.02,15.137
1533058215,24.902,16.113
1533058215,40.039,16.113
1533058215,39.062,21.973
1533058215,33.691,25.879
1533058215,27.344,24.902
1533058215,42.969,27.344
1533058215,62.988,30.273
1533058215,39.551,28.809
1533058215,18.066,27.832
1533058215,7.812,25.879
1533058215,6.348,22.461
1533058215,20.508,24.902
1533058215,16.602,30.762
1533058215,4.395,36.133
1533058215,1.953,33.203
1533058215,6.348,26.367
1533058215,22.949,24.414
1533058215,23.926,22.949
1533058215,13.184,27.344
1533058215,7.812,27.344
1533058215,4.395,25.879
1533058215,23.438,32.227
1533058215,31.25,30.762
1533058215,14.648,31.25
1533058215,5.859,34.668
1533058215,8.301,35.156
1533058215,26.367,34.668
1533058215,33.691,31.25
1533058215,22.461,28.32
1533058215,12.695,28.32
1533058215,5.859,31.25
1533058215,18.555,36.621
1533058215,29.785,37.598
1533058215,25.879,38.574
1533058215,20.02,36.133
1533058215,10.742,30.762
1533058215,20.508,32.715
1533058215,33.691,34.668
1533058215,25.391,33.203
1533058215,19.043,40.039
1533058215,28.809,40.039
1533058215,39.062,31.738
1533058215,36.133,32.227
1533058215,12.695,28.809
1533058215,-5.371,21.973
1533058215,-8.301,17.09
1533058215,-5.859,12.695
1533058215,0.488,7.812
1533058215,-11.719,1.465
1533058215,-16.602,2.93
1533058215,-19.531,3.906
1533058215,-19.531,4.883
1533058215,2.93,19.043
1533058215,6.836,25.879
1533058215,-8.301,25.879
1533058215,-11.719,27.832
1533058215,-3.418,31.25
1533058215,11.719,34.18
1533058215,17.09,34.668
1533058215,8.301,37.109
1533058215,1.465,41.016
1533058216,3.906,38.086
1533058216,22.949,38.574
1533058216,32.715,43.457
1533058216,24.414,41.992
1533058216,14.16,43.945
1533058216,12.207,46.875
1533058216,25.391,44.922
1533058216,29.785,39.551
1533058216,12.695,34.18
1533058216,7.812,33.203
1533058216,8.301,34.18
1533058216,19.043,33.203
1533058216,32.227,29.297
1533058216,15.625,23.926
1533058216,10.742,26.855
1533058216,17.09,29.785
1533058216,27.832,26.855
1533058216,35.645,28.32
1533058216,18.066,28.32
1533058216,5.859,25.391
1533058216,1.465,22.461
1533058216,12.695,21.973
1533058216,25.391,21.484
1533058216,15.625,21.973
1533058216,9.766,22.461
1533058216,7.324,22.461
1533058216,15.625,29.297
1533058216,28.809,30.273
1533058216,25.391,26.367
1533058216,16.113,24.902
1533058216,11.719,25.391
1533058216,22.949,24.902
1533058216,36.133,23.926
1533058216,34.18,24.902
1533058216,30.273,24.902
1533058216,16.113,19.531
1533058216,10.254,19.043
1533058216,30.762,24.414
1533058216,27.832,23.438
1533058216,11.23,19.043
1533058216,10.742,16.602
1533058216,10.254,14.648
1533058216,19.043,14.648
1533058216,22.949,14.648
1533058216,20.02,17.578
1533058216,14.648,16.602
1533058216,2.93,13.184
1533058216,16.113,14.16
1533058216,27.832,17.578
1533058216,18.066,18.555
1533058216,11.719,15.137
1533058216,3.906,17.09
1533058216,10.254,19.043
1533058216,24.902,24.902
1533058216,14.648,28.809
1533058216,2.93,25.391
1533058216,3.418,21.973
1533058216,13.184,20.996
1533058216,25.879,22.949
1533058216,21.484,24.902
1533058216,6.348,24.902
1533058216,5.371,23.438
1533058216,15.137,23.438
1533058216,26.367,23.926
1533058216,24.902,27.832
1533058216,16.113,33.691
1533058216,14.648,35.645
1533058216,20.996,36.133
1533058216,31.25,33.203
1533058216,23.926,31.25
1533058216,10.742,29.785
1533058216,5.859,30.273
1533058216,7.324,29.297
1533058216,22.461,26.855
1533058216,20.996,26.855
1533058216,10.254,27.344
1533058216,8.789,28.32
1533058216,8.301,27.832
1533058216,19.043,29.785
1533058216,16.602,32.715
1533058216,10.254,28.809
1533058216,3.906,24.902
1533058216,-1.465,27.344
1533058216,15.625,25.879
1533058216,23.926,27.832
1533058216,17.09,29.785
1533058216,12.695,28.809
1533058216,11.719,34.668
1533058216,22.949,35.156
1533058216,27.832,33.691
1533058216,14.16,34.668
1533058216,4.883,32.227
1533058216,3.418,31.25
1533058216,16.113,34.668
1533058216,26.367,34.668
1533058216,21.973,33.203
1533058216,14.648,33.691
1533058216,11.719,33.203
1533058216,25.879,29.785
1533058216,39.062,29.297
1533058216,30.273,32.227
1533058216,28.32,34.18
1533058216,25.391,32.227
1533058216,23.926,29.297
1533058216,37.109,26.367
1533058216,32.227,24.414
1533058216,16.113,24.902
1533058216,11.23,24.414
1533058216,16.113,22.461
1533058216,26.855,19.531
1533058216,25.879,20.996
1533058216,12.695,22.461
1533058216,7.324,25.391
1533058216,15.625,28.809
1533058216,27.344,25.391
1533058216,32.227,26.367
1533058216,25.879,25.879
1533058216,12.207,21.484
1533058216,14.648,20.508
1533058216,31.738,19.043
1533058216,35.645,19.531
1533058216,25.391,19.531
1533058216,16.602,15.625
1533058216,13.672,18.555
1533058216,26.855,22.949
1533058216,36.133,19.531
1533058216,27.344,17.09
1533058216,19.531,19.043
1533058216,15.137,21.484
1533058216,26.367,18.555
1533058216,36.133,16.602
1533058216,29.785,16.113
1533058216,26.367,17.09
1533058216,24.414,19.531
1533058216,37.109,20.508
1533058216,48.34,20.996
1533058216,38.086,22.461
1533058216,29.297,26.855
1533058216,31.25,32.227
1533058216,41.504,33.691
1533058216,46.875,29.297
1533058216,38.086,25.391
1533058216,28.32,31.25
1533058216,24.902,33.203
1533058216,37.109,28.32
1533058216,50.781,27.832
1533058216,41.504,31.25
1533058216,25.391,31.738
1533058216,20.02,29.297
1533058216,27.832,29.297
1533058216,45.898,31.738
1533058216,38.574,30.273
1533058216,21.973,25.391
1533058216,20.508,23.926
1533058216,25.391,25.879
1533058216,36.133,30.273
1533058216,36.621,32.715
1533058216,22.461,30.762
1533058216,14.648,30.273
1533058216,17.578,33.203
1533058216,29.785,33.203
1533058216,29.297,28.32
1533058216,18.555,23.926
1533058216,13.184,22.949
1533058216,12.207,20.02
1533058216,27.832,20.02
1533058216,38.574,24.902
1533058216,24.902,21.973
1533058216,14.16,20.996
1533058216,17.09,21.973
1533058216,33.691,21.484
1533058216,38.086,22.949
1533058216,29.785,23.438
1533058216,20.02,24.902
1533058216,12.207,21.973
1533058216,24.902,19.043
1533058216,40.039,23.926
1533058216,33.203,27.344
1533058216,18.066,23.438
1533058216,9.277,23.438
1533058216,20.02,25.391
1533058216,30.762,20.508
1533058216,21.484,18.066
1533058216,13.184,21.973
1533058216,11.719,27.344
1533058216,14.648,29.785
1533058216,24.902,32.227
1533058216,24.414,32.715
1533058216,17.578,29.297
1533058216,14.16,25.391
1533058216,21.973,25.391
1533058216,36.621,26.855
1533058216,31.738,27.832
1533058216,21.973,25.879
1533058216,15.625,24.902
1533058216,21.484,24.414
1533058216,38.086,27.832
1533058216,40.039,30.762
1533058216,27.344,27.832
1533058216,16.602,23.926
1533058216,16.602,22.949
1533058216,25.879,22.461
1533058216,31.25,18.555
1533058216,25.391,20.508
1533058216,17.578,27.344
1533058216,16.602,27.344
1533058216,28.809,20.996
1533058216,32.715,17.09
1533058216,20.996,18.555
1533058216,15.137,20.508
1533058216,14.16,17.09
1533058216,24.902,18.066
1533058216,36.621,24.414
1533058216,26.855,26.367
1533058216,17.578,24.902
1533058216,16.113,25.391
1533058216,22.949,26.367
1533058216,29.785,25.391
1533058216,24.414,22.949
1533058216,21.484,20.02
1533058216,13.672,20.508
1533058216,13.184,23.926
1533058216,22.461,24.902
1533058216,20.02,26.367
1533058216,14.648,22.949
1533058216,12.695,20.508
1533058216,19.531,20.996
1533058216,29.297,22.461
1533058216,25.391,24.414
1533058216,16.113,24.414
1533058216,8.789,26.855
1533058216,14.648,30.273
1533058216,26.855,29.297
1533058216,24.902,27.832
1533058216,12.695,31.738
1533058216,8.301,33.691
1533058216,15.137,30.762
1533058216,28.32,31.738
1533058216,28.809,33.203
1533058216,18.066,28.809
1533058216,12.207,26.367
1533058216,17.09,28.32
1533058216,32.227,27.832
1533058216,36.133,28.809
1533058216,20.508,27.344
1533058216,14.648,25.391
1533058216,16.113,26.855
1533058216,24.902,30.273
1533058216,35.645,33.203
1533058216,28.809,35.156
1533058216,15.625,34.668
1533058216,12.695,37.109
1533058216,26.855,41.992
1533058216,36.133,40.527
1533058216,23.926,39.062
1533058216,10.742,34.668
1533058217,10.254,32.715
1533058217,22.461,35.645
1533058217,33.691,34.18
1533058217,24.414,34.18
1533058217,17.09,35.645
1533058217,14.648,34.18
1533058217,20.02,33.203
1533058217,31.738,28.32
1533058217,25.879,24.414
1533058217,11.23,25.879
1533058217,10.254,26.367
1533058217,19.043,26.855
1533058217,28.32,29.297
1533058217,21.484,31.25
1533058217,13.672,30.762
1533058217,9.766,25.391
1533058217,17.09,20.508
1533058217,32.227,18.555
1533058217,20.996,17.578
1533058217,15.625,20.508
1533058217,15.625,17.578
1533058217,12.207,18.555
1533058217,26.367,24.902
1533058217,35.156,26.367
1533058217,21.484,26.367
1533058217,5.371,23.926
1533058217,13.672,26.367
1533058217,30.273,31.738
1533058217,41.992,35.156
1533058217,38.086,33.691
1533058217,20.02,30.273
1533058217,11.719,30.762
1533058217,28.809,34.668
1533058217,41.992,35.645
1533058217,31.738,40.039
1533058217,33.691,41.016
1533058217,37.598,35.156
1533058217,40.039,34.18
1533058217,47.852,30.273
1533058217,46.387,24.414
1533058217,35.156,26.367
1533058217,28.809,31.738
1533058217,44.434,33.203
1533058217,61.035,32.227
1533058217,51.27,30.762
1533058217,39.551,29.785
1533058217,37.598,37.598
1533058217,45.41,42.969
1533058217,58.594,37.598
1533058217,54.199,39.062
1533058217,42.48,41.992
1533058217,43.945,39.551
1533058217,48.34,36.621
1533058217,58.594,35.156
1533058217,59.082,37.109
1533058217,51.758,32.227
1533058217,45.41,30.273
1533058217,55.176,34.18
1533058217,80.078,36.621
1533058217,78.125,41.016
1533058217,65.43,41.016
1533058217,65.43,41.504
1533058217,74.219,47.852
1533058217,84.473,51.758
1533058217,82.031,52.734
1533058217,61.035,48.34
1533058217,51.758,41.504
1533058217,54.199,42.969
1533058217,61.035,44.922
1533058217,69.824,43.945
1533058217,63.477,47.363
1533058217,62.988,47.852
1533058217,57.617,41.992
1533058217,58.105,37.598
1533058217,61.523,36.621
1533058217,51.758,37.109
1533058217,48.828,38.086
1533058217,38.574,37.109
1533058217,54.199,36.621
1533058217,65.43,32.715
1533058217,54.199,31.25
1533058217,44.922,32.227
1533058217,37.598,30.273
1533058217,36.621,24.414
1533058217,44.922,20.02
1533058217,39.551,23.438
1533058217,36.621,23.438
1533058217,40.039,22.949
1533058217,34.18,26.367
1533058217,46.387,23.926
1533058217,41.992,18.555
1533058217,44.434,18.555
1533058217,48.34,25.391
1533058217,38.574,23.926
1533058217,39.062,18.555
1533058217,50.293,20.02
1533058217,37.598,19.531
1533058217,21.484,21.484
1533058217,40.527,26.855
1533058217,47.852,23.438
1533058217,35.645,19.531
1533058217,20.996,15.625
1533058217,17.578,7.812
1533058217,14.648,7.812
1533058217,29.785,10.254
1533058217,41.016,11.23
1533058217,22.461,10.742
1533058217,24.414,11.719
1533058217,32.227,16.602
1533058217,37.109,19.043
1533058217,31.25,14.648
1533058217,27.344,13.672
1533058217,27.344,11.23
1533058217,17.578,7.812
1533058217,28.809,6.348
1533058217,31.738,4.883
1533058217,10.254,5.859
1533058217,10.742,4.883
1533058217,14.16,8.789
1533058217,13.672,10.742
1533058217,23.926,10.254
1533058217,12.695,14.648
1533058217,0.977,12.207
1533058217,7.812,9.277
1533058217,12.207,10.742
1533058217,15.625,8.301
1533058217,11.719,9.766
1533058217,0.977,13.184
1533058217,-12.207,11.23
1533058217,-9.277,10.742
1533058217,0,11.23
1533058217,-6.348,9.766
1533058217,-18.066,4.883
1533058217,-18.066,1.465
1533058217,-13.672,0.977
1533058217,-11.719,2.93
1533058217,-14.648,11.23
1533058217,-25.879,14.648
1533058217,-29.297,13.672
1533058217,-15.625,16.602
1533058217,6.348,15.137
1533058217,7.324,12.207
1533058217,-6.836,17.09
1533058217,-15.137,14.16
1533058217,-14.16,11.23
1533058217,-5.859,9.277
1533058217,-6.836,9.766
1533058217,1.465,13.184
1533058217,3.418,14.16
1533058217,-3.906,13.184
1533058217,6.348,12.207
1533058217,10.254,16.113
1533058217,7.812,20.996
1533058217,7.324,23.926
1533058217,1.953,23.926
1533058217,3.906,19.531
1533058217,15.137,21.973
1533058217,6.348,24.902
1533058217,-3.418,23.438
1533058217,-7.324,21.973
1533058217,0.488,21.484
1533058217,22.461,20.02
1533058217,14.648,15.625
1533058217,17.09,17.09
1533058217,20.02,21.973
1533058217,13.672,23.926
1533058217,27.832,24.902
1533058217,24.902,25.391
1533058217,13.184,25.879
1533058217,12.695,24.902
1533058217,17.578,22.461
1533058217,23.926,20.508
1533058217,26.367,27.344
1533058217,24.902,32.715
1533058217,22.949,27.832
1533058217,25.391,30.762
1533058217,37.109,31.738
1533058217,33.691,27.344
1533058217,19.043,26.855
1533058217,13.184,23.926
1533058217,9.277,20.02
1533058217,21.973,20.996
1533058217,26.367,20.996
1533058217,11.719,17.578
1533058217,13.672,19.531
1533058217,21.484,20.996
1533058217,21.973,26.367
1533058217,22.461,27.344
1533058217,22.461,20.996
1533058217,17.578,23.438
1533058217,10.742,25.879
1533058217,28.32,23.438
1533058217,39.551,19.531
1533058217,19.531,19.043
1533058217,13.184,17.578
1533058217,13.672,21.973
1533058217,28.32,24.902
1533058217,41.016,22.949
1533058217,30.273,23.438
1533058217,20.508,22.461
1533058217,15.625,21.484
1533058217,21.484,23.926
1533058217,30.762,23.438
1533058217,22.461,21.973
1533058217,17.09,20.02
1533058217,20.996,25.879
1533058217,21.484,28.809
1533058217,30.273,25.391
1533058217,28.809,24.902
1533058217,26.367,26.367
1533058217,20.508,25.391
1533058217,16.602,22.949
1533058217,25.391,24.414
1533058217,21.484,29.785
1533058217,17.09,27.832
1533058217,16.113,26.855
1533058217,18.066,31.25
1533058217,27.344,29.297
1533058217,31.738,30.762
1533058217,25.879,30.762
1533058217,16.113,27.344
1533058217,7.812,25.391
1533058217,14.648,25.879
1533058217,21.973,29.785
1533058217,10.254,28.809
1533058217,7.812,26.855
1533058217,17.578,29.785
1533058217,27.344,34.18
1533058217,26.855,33.203
1533058217,21.484,27.344
1533058217,20.02,25.879
1533058217,13.672,24.902
1533058217,17.578,24.902
1533058217,38.086,26.367
1533058217,35.156,21.484
1533058217,19.531,17.09
1533058217,27.832,18.066
1533058217,45.41,20.508
1533058217,30.762,19.531
1533058217,12.695,16.602
1533058217,10.742,13.184
1533058217,6.348,14.16
1533058217,16.602,15.625
1533058217,32.227,19.531
1533058217,28.809,21.973
1533058217,14.16,19.531
1533058217,-0.488,17.09
1533058217,1.953,18.066
1533058217,17.578,18.066
1533058217,16.113,18.555
1533058217,8.789,17.09
1533058217,0.488,16.602
1533058217,-3.418,16.113
1533058217,12.207,20.508
1533058217,6.348,23.438
1533058217,-3.906,18.066
1533058218,2.93,18.066
1533058218,0.977,17.578
1533058218,13.672,16.602
1533058218,22.949,21.484
1533058218,4.395,18.555
1533058218,5.859,16.602
1533058218,18.555,21.484
1533058218,19.043,24.414
1533058218,24.414,23.438
1533058218,25.391,26.367
1533058218,11.23,27.344
1533058218,2.441,30.273
1533058218,17.09,33.203
1533058218,30.273,32.715
1533058218,26.367,36.133
1533058218,10.742,34.668
1533058218,1.465,30.273
1533058218,19.043,28.809
1533058218,31.25,30.273
1533058218,20.996,30.762
1533058218,10.742,29.785
1533058218,13.184,26.855
1533058218,26.367,25.391
1533058218,20.02,26.367
1533058218,12.695,27.344
1533058218,14.16,27.832
1533058218,7.324,28.809
1533058218,16.602,29.785
1533058218,35.156,26.855
1533058218,26.855,26.367
1533058218,23.438,28.32
1533058218,28.32,27.832
1533058218,34.18,31.25
1533058218,49.316,32.227
1533058218,49.805,33.203
1533058218,44.922,30.273
1533058218,34.668,23.926
1533058218,33.203,27.344
1533058218,46.387,29.297
1533058218,43.945,27.832
1533058218,33.203,26.367
1533058218,26.855,25.879
1533058218,27.344,26.855
1533058218,36.621,22.461
1533058218,34.18,19.043
1533058218,18.555,20.508
1533058218,16.602,22.949
1533058218,26.367,27.344
1533058218,35.645,30.273
1533058218,43.457,32.715
1533058218,30.762,34.18
1533058218,9.766,31.738
1533058218,9.766,32.715
1533058218,20.508,34.18
1533058218,19.531,31.738
1533058218,8.301,27.344
1533058218,2.441,27.344
1533058218,3.906,34.668
1533058218,10.742,40.527
1533058218,16.602,39.551
1533058218,10.254,34.18
1533058218,0,32.715
1533058218,3.418,38.086
1533058218,12.207,38.574
1533058218,19.531,33.203
1533058218,9.277,31.25
1533058218,-5.371,31.738
1533058218,-3.906,35.156
1533058218,7.812,32.715
1533058218,15.137,28.32
1533058218,7.812,31.738
1533058218,4.395,35.156
1533058218,0,36.133
1533058218,5.371,37.598
1533058218,17.578,40.039
1533058218,10.254,39.062
1533058218,12.695,36.133
1533058218,13.184,37.598
1533058218,20.508,38.574
1533058218,23.926,34.18
1533058218,16.602,30.762
1533058218,13.184,30.273
1533058218,4.883,27.832
1533058218,4.883,25.879
1533058218,23.438,28.32
1533058218,25.879,32.227
1533058218,15.137,32.715
1533058218,20.508,32.715
1533058218,22.461,32.715
1533058218,30.273,32.715
1533058218,36.133,33.203
1533058218,33.203,30.762
1533058218,20.996,23.438
1533058218,26.367,23.926
1533058218,49.805,33.691
1533058218,51.27,36.133
1533058218,35.645,31.738
1533058218,27.832,29.297
1533058218,22.949,25.879
1533058218,28.32,25.391
1533058218,41.992,28.809
1533058218,51.758,28.809
1533058218,50.293,27.832
1533058218,41.504,26.855
1533058218,58.594,27.832
1533058218,50.781,30.762
1533058218,27.832,31.25
1533058218,29.785,30.762
1533058218,27.832,32.715
1533058218,35.645,32.715
1533058218,48.34,26.367
1533058218,42.48,26.367
1533058218,31.25,28.809
1533058218,25.391,29.785
1533058218,30.762,28.32
1533058218,34.18,21.973
1533058218,23.438,17.578
1533058218,8.789,14.648
1533058218,7.324,10.742
1533058218,14.16,10.254
1533058218,28.32,13.184
1533058218,40.039,17.578
1533058218,17.578,16.113
1533058218,-1.465,13.184
1533058218,3.418,16.113
1533058218,19.531,17.09
1533058218,29.785,14.648
1533058218,20.508,20.02
1533058218,10.742,24.902
1533058218,7.324,23.438
1533058218,17.578,25.391
1533058218,25.391,28.809
1533058218,17.09,29.785
1533058218,10.742,31.738
1533058218,14.648,30.762
1533058218,24.414,29.297
1533058218,25.879,31.738
1533058218,21.484,30.762
1533058218,11.719,30.273
1533058218,9.766,30.762
1533058218,20.996,27.344
1533058218,40.527,30.762
1533058218,31.25,33.203
1533058218,15.625,23.926
1533058218,14.16,23.438
1533058218,23.926,27.344
1533058218,42.969,23.438
1533058218,32.715,21.484
1533058218,12.695,18.066
1533058218,12.695,20.02
